# La4Ni3O10 Ni L3 edge RIXS
# Room temperature
# RIXS resolution ~ 0.4 eV
# Horizontal scattering geometry, theta = 15 degrees, 2theta = 95 degrees
# SEXTANTS beamline, SOLEIL synchrotron
# Energy loss 	 Intensity
-45.560392      -126.45
-45.480836       165.10
-45.401305       221.95
-45.321799       240.15
-45.242317       580.85
-45.162860       966.75
-45.083427       984.45
-45.004019      1105.20
-44.924635      1222.20
-44.845276      1484.25
-44.765941      1719.45
-44.686631      1035.95
-44.607346       885.05
-44.528085      1124.50
-44.448848      1700.90
-44.369636      1446.85
-44.290449      1244.30
-44.211286       782.05
-44.132148      1051.60
-44.053034      1326.00
-43.973945      1009.50
-43.894880       728.65
-43.815840      1417.90
-43.736825      1458.30
-43.657834      1875.55
-43.578867      1731.10
-43.499925       799.80
-43.421008       -15.15
-43.342115       756.30
-43.263247      1470.40
-43.184403      1339.65
-43.105584      1454.75
-43.026789      1579.20
-42.948019      1302.15
-42.869273      1126.95
-42.790552      1373.05
-42.711856      1030.65
-42.633184       509.05
-42.554536       536.90
-42.475913       664.65
-42.397315       981.30
-42.318741      1476.05
-42.240192      1555.50
-42.161667      1260.65
-42.083167      1054.75
-42.004691      1248.40
-41.926240      1849.60
-41.847814      2225.70
-41.769412      1536.10
-41.691034       979.95
-41.612681       994.95
-41.534353       543.05
-41.456049       523.00
-41.377770       302.30
-41.299515        12.95
-41.221285       685.10
-41.143079       702.00
-41.064898       803.60
-40.986741      1019.30
-40.908609       730.60
-40.830502       804.50
-40.752419      1220.80
-40.674360      1286.00
-40.596326      1416.00
-40.518317      1075.20
-40.440332       579.55
-40.362372       988.10
-40.284436      1246.45
-40.206525      1205.90
-40.128638      1086.85
-40.050776      1506.40
-39.972939      1511.50
-39.895126      1510.50
-39.817337      1229.15
-39.739573      1621.90
-39.661834      1704.30
-39.584119      2002.60
-39.506428      1332.05
-39.428763      1129.60
-39.351121       920.70
-39.273505       873.60
-39.195913       758.55
-39.118345      1222.85
-39.040802       978.95
-38.963283      1404.90
-38.885789      1505.20
-38.808320      1008.65
-38.730875      1090.20
-38.653455      1080.05
-38.576059       494.95
-38.498687       585.05
-38.421341       567.80
-38.344019      1019.20
-38.266721      1060.60
-38.189448       598.25
-38.112199       296.60
-38.034975       987.55
-37.957776       635.20
-37.880601      1457.70
-37.803450      1590.10
-37.726324      1676.15
-37.649223      1487.40
-37.572146      1826.85
-37.495094      1505.45
-37.418066      1977.05
-37.341063      1898.20
-37.264084      1627.85
-37.187130      1166.20
-37.110201      1413.55
-37.033296      1337.50
-36.956415      1009.85
-36.879559      1559.80
-36.802728      1148.80
-36.725921      1569.05
-36.649139      1421.20
-36.572381      1359.60
-36.495648      1583.60
-36.418939      1582.85
-36.342255      1488.35
-36.265596      1788.65
-36.188960      1549.80
-36.112350      2057.05
-36.035764      1903.55
-35.959203      1734.75
-35.882666      1609.15
-35.806153      1214.45
-35.729666       954.65
-35.653202      1128.35
-35.576764      1191.50
-35.500349      1792.25
-35.423960      1567.70
-35.347595      1350.95
-35.271254      1257.50
-35.194938      1618.20
-35.118647      2028.85
-35.042380      2078.35
-34.966137      1568.25
-34.889919      1720.15
-34.813726      2056.35
-34.737557      2140.00
-34.661413      1593.40
-34.585293      1078.00
-34.509198      1129.65
-34.433128       666.00
-34.357082      1603.70
-34.281060      1658.50
-34.205063      1552.50
-34.129091       873.20
-34.053143      1086.25
-33.977219       778.25
-33.901321      1071.65
-33.825446      1265.25
-33.749597      1859.45
-33.673771      1447.10
-33.597971      1314.05
-33.522195      1295.75
-33.446443      1201.25
-33.370716      1552.55
-33.295014      1615.70
-33.219336       735.55
-33.143682      1460.70
-33.068053      1677.95
-32.992449      1884.65
-32.916869      1882.45
-32.841314      1892.60
-32.765783      1363.20
-32.690277      1927.35
-32.614796      1928.25
-32.539339      2222.25
-32.463906      2050.15
-32.388498      2580.00
-32.313115      1824.90
-32.237756      1683.45
-32.162421      1299.00
-32.087112      1140.10
-32.011826      1364.80
-31.936566      1434.15
-31.861329      1090.30
-31.786118      1549.60
-31.710931      1415.10
-31.635768      1592.55
-31.560630      1553.30
-31.485517      2377.60
-31.410428      2145.00
-31.335363      2241.80
-31.260323      1803.30
-31.185308      2111.40
-31.110317      1808.40
-31.035351      1941.05
-30.960409      2462.70
-30.885492      2620.00
-30.810599      1839.85
-30.735731      2502.55
-30.660888      2519.90
-30.586069      2205.75
-30.511274      1590.20
-30.436505      1625.30
-30.361759      1820.60
-30.287038      2236.40
-30.212342      1914.50
-30.137670      1257.75
-30.063023      1345.70
-29.988400      1691.25
-29.913802      1595.10
-29.839229      1851.60
-29.764680      1750.05
-29.690155      1440.65
-29.615655      2089.20
-29.541180      1887.45
-29.466729      1296.60
-29.392303      1737.50
-29.317901      1756.50
-29.243524      1992.05
-29.169171      1971.75
-29.094843      2533.60
-29.020539      1903.05
-28.946260      1792.25
-28.872005      1898.65
-28.797775      2041.20
-28.723570      1852.85
-28.649389      1998.00
-28.575233      1703.15
-28.501101      1764.55
-28.426994      1834.55
-28.352911      1914.70
-28.278853      1436.75
-28.204819      1317.50
-28.130810       897.75
-28.056825       852.20
-27.982865       906.95
-27.908930      1241.85
-27.835019      1421.30
-27.761132      1155.85
-27.687270      1446.30
-27.613433      1382.95
-27.539620      1309.10
-27.465832      1443.40
-27.392068      1642.85
-27.318329      2130.75
-27.244614      2659.05
-27.170924      2459.50
-27.097259      2394.15
-27.023618      1774.20
-26.950001      2312.55
-26.876409      2246.45
-26.802842      2666.85
-26.729299      1919.95
-26.655781      2004.45
-26.582287      2185.20
-26.508818      1923.00
-26.435373      1544.30
-26.361953      1446.90
-26.288557      1793.40
-26.215186      1383.45
-26.141840      1093.50
-26.068518      1694.05
-25.995220      1486.85
-25.921948      1494.40
-25.848699      1194.25
-25.775475      1612.20
-25.702276      1924.35
-25.629101      1981.45
-25.555951      1652.30
-25.482826      1146.25
-25.409724      1253.00
-25.336648      1845.35
-25.263596      2042.00
-25.190568      2402.20
-25.117565      1892.60
-25.044587      2231.30
-24.971633      2144.90
-24.898704      1628.20
-24.825799      2206.05
-24.752919      2144.85
-24.680063      1699.65
-24.607232      1836.75
-24.534425      1170.05
-24.461643      1115.85
-24.388886      1603.70
-24.316153      2409.85
-24.243444      2034.30
-24.170761      1727.20
-24.098101      1897.90
-24.025466      1686.45
-23.952856      1591.00
-23.880270      1671.40
-23.807709      1549.35
-23.735172      1619.15
-23.662660      1550.35
-23.590173      1446.30
-23.517710      1529.45
-23.445271      1432.25
-23.372857      1833.50
-23.300468      1561.10
-23.228103      1097.10
-23.155763      1232.15
-23.083447      1633.70
-23.011156      1990.50
-22.938889      2322.80
-22.866647      1747.35
-22.794429      1260.55
-22.722236       923.70
-22.650068       907.60
-22.577924       738.80
-22.505804      1275.45
-22.433709      1168.30
-22.361639      1305.80
-22.289593      1500.15
-22.217572      1308.85
-22.145575      1194.05
-22.073603       727.60
-22.001655      1208.15
-21.929732      1367.30
-21.857834      1127.95
-21.785959      1339.95
-21.714110      1493.05
-21.642285      1781.10
-21.570485      1861.00
-21.498709       950.15
-21.426957       924.10
-21.355231      1296.40
-21.283528      1346.65
-21.211851      1256.50
-21.140197       914.90
-21.068569      1034.00
-20.996965        42.30
-20.925385       600.95
-20.853830       974.05
-20.782300      1749.10
-20.710794      1206.10
-20.639312      1062.70
-20.567856      1155.35
-20.496423      1452.50
-20.425016      1232.05
-20.353632      1814.95
-20.282274      1548.25
-20.210940      1756.75
-20.139630      1560.55
-20.068345      1759.05
-19.997084      1949.15
-19.925848      2105.35
-19.854637      1746.35
-19.783450      1276.00
-19.712288      1410.60
-19.641150      1847.50
-19.570037      1878.90
-19.498948      1447.15
-19.427884      1009.20
-19.356844       865.45
-19.285829      1083.10
-19.214839      1371.15
-19.143873      1113.70
-19.072931      1189.35
-19.002014      1325.85
-18.931122       824.95
-18.860254       606.20
-18.789411      1437.75
-18.718592      1319.85
-18.647798       832.35
-18.577028       857.65
-18.506283      1184.15
-18.435562       757.10
-18.364866      1051.80
-18.294195       825.50
-18.223548       939.90
-18.152925      1219.35
-18.082327      1566.95
-18.011754      1619.35
-17.941205      1259.10
-17.870681      1245.95
-17.800181      1591.60
-17.729706      1676.05
-17.659255      1568.70
-17.588829       886.10
-17.518428       384.75
-17.448051       926.50
-17.377698       874.05
-17.307370       888.00
-17.237067       900.80
-17.166788       924.70
-17.096534      1450.95
-17.026304      1714.20
-16.956099      1793.10
-16.885918      1354.50
-16.815762      1318.75
-16.745630      1237.80
-16.675523      1367.40
-16.605441      1197.90
-16.535383      1523.60
-16.465349      1095.15
-16.395340       953.15
-16.325356      1131.95
-16.255396      1496.55
-16.185461      1732.90
-16.115550       848.95
-16.045664       970.00
-15.975802       877.90
-15.905965      1205.80
-15.836153      1456.70
-15.766365      1416.20
-15.696601      1253.15
-15.626862      1459.00
-15.557148      1698.10
-15.487458      1400.00
-15.417793      1640.10
-15.348152      1627.10
-15.278536      1381.65
-15.208944      1183.30
-15.139377      1863.00
-15.069834      1047.50
-15.000316       786.90
-14.930823       962.35
-14.861354      1105.15
-14.791909      1290.80
-14.722489      1460.25
-14.653094      1931.10
-14.583723      2080.95
-14.514377      1529.40
-14.445055      1343.75
-14.375758      1024.90
-14.306485      1599.90
-14.237237      1308.80
-14.168014      2037.15
-14.098815      2277.65
-14.029640      1309.20
-13.960490       781.00
-13.891365      1326.00
-13.822264      1901.10
-13.753187      1974.75
-13.684136      2092.70
-13.615108      1766.75
-13.546106       848.85
-13.477128       728.45
-13.408174      1052.20
-13.339245      1450.45
-13.270340      1419.40
-13.201460      2120.00
-13.132605      1710.60
-13.063774      1059.40
-12.994968       798.95
-12.926186      1562.00
-12.857428      1645.50
-12.788696      2101.60
-12.719988      2083.45
-12.651304      2508.15
-12.582645      1700.60
-12.514010      1922.75
-12.445400      1958.95
-12.376815      2058.80
-12.308254      1843.65
-12.239717      1952.55
-12.171205      1321.85
-12.102718      2018.45
-12.034255      1980.10
-11.965817      1927.60
-11.897403      1272.10
-11.829014      1735.20
-11.760649      2072.80
-11.692309      1756.25
-11.623994      1224.10
-11.555703      2123.45
-11.487436      1795.90
-11.419194      2050.15
-11.350977      1851.20
-11.282784      1914.00
-11.214616      2013.65
-11.146472      2147.55
-11.078353      1064.55
-11.010258      1977.50
-10.942188      2320.15
-10.874142      2575.05
-10.806121      2344.75
-10.738125      2412.60
-10.670153      2110.05
-10.602206      1712.80
-10.534283      1849.70
-10.466384      2305.60
-10.398510      2484.25
-10.330661      1685.50
-10.262836      1853.25
-10.195036      2330.40
-10.127261      2567.25
-10.059510      2552.90
-9.991783       2534.80
-9.924081       2615.65
-9.856404       2667.65
-9.788751       1876.85
-9.721122       2053.60
-9.653518       2341.20
-9.585939       2098.75
-9.518384       2267.60
-9.450854       2159.75
-9.383348       2350.80
-9.315867       3023.35
-9.248411       2694.10
-9.180979       2078.30
-9.113571       1142.55
-9.046188       1719.05
-8.978830       2279.85
-8.911496       2101.65
-8.844186       2298.30
-8.776902       1398.85
-8.709641       1536.35
-8.642406       2552.80
-8.575194       2169.40
-8.508008       2101.80
-8.440846       2431.80
-8.373708       2506.75
-8.306595       1924.85
-8.239507       2175.35
-8.172443       1948.35
-8.105403       2456.00
-8.038388       2730.00
-7.971398       2480.90
-7.904432       2213.35
-7.837491       1850.70
-7.770574       1712.35
-7.703682       1374.20
-7.636815       2296.10
-7.569971       2631.80
-7.503153       1875.95
-7.436359       1384.20
-7.369590        988.50
-7.302845       2012.80
-7.236124       2354.80
-7.169428       2266.70
-7.102757       2419.45
-7.036110       2457.05
-6.969488       2940.05
-6.902891       2706.55
-6.836317       2264.35
-6.769769       2179.75
-6.703245       2484.05
-6.636745       2905.55
-6.570270       3034.00
-6.503820       2885.45
-6.437394       2546.05
-6.370993       3048.15
-6.304616       2809.25
-6.238264       2990.00
-6.171936       3001.00
-6.105633       3286.55
-6.039354       3161.90
-5.973100       2517.15
-5.906871       2515.20
-5.840666       2777.20
-5.774485       1967.05
-5.708329       2631.80
-5.642198       2766.15
-5.576091       2367.25
-5.510009       2153.60
-5.443951       3000.15
-5.377918       2741.55
-5.311909       2691.40
-5.245925       2867.70
-5.179966       3589.90
-5.114030       3287.15
-5.048120       2349.25
-4.982234       2649.15
-4.916373       2584.20
-4.850536       2774.85
-4.784723       2408.70
-4.718936       2151.45
-4.653172       2364.35
-4.587434       3045.75
-4.521719       2724.75
-4.456030       2003.35
-4.390365       2332.25
-4.324724       2918.00
-4.259108       2824.65
-4.193517       2611.65
-4.127950       2962.90
-4.062407       3105.25
-3.996890       2492.50
-3.931396       1923.45
-3.865928       2349.00
-3.800483       2798.65
-3.735064       2427.15
-3.669669       3219.75
-3.604298       2474.20
-3.538952       1759.35
-3.473630       1689.05
-3.408333       2819.00
-3.343061       3480.20
-3.277813       3349.25
-3.212590       2655.20
-3.147391       3305.45
-3.082217       3377.60
-3.017067       2358.10
-2.951942       2295.95
-2.886841       2803.45
-2.821765       3199.65
-2.756713       3675.95
-2.691686       2569.50
-2.626684       2677.90
-2.561706       2476.00
-2.496753       3236.75
-2.431824       3513.15
-2.366920       2843.20
-2.302040       2690.35
-2.237185       3895.55
-2.172354       3925.90
-2.107548       3618.90
-2.042766       3486.70
-1.978009       4413.75
-1.913277       3901.00
-1.848569       4185.85
-1.783885       3966.05
-1.719226       3725.95
-1.654592       3395.10
-1.589982       3921.05
-1.525397       3157.70
-1.460836       3041.75
-1.396300       2606.25
-1.331788       3030.85
-1.267301       4186.10
-1.202839       4624.75
-1.138401       4269.45
-1.073987       4372.10
-1.009598       4530.45
-0.945234       4786.50
-0.880894       4969.95
-0.816579       6094.05
-0.752288       7485.35
-0.688022       7286.00
-0.623780       7483.20
-0.559563       8691.70
-0.495370      11906.60
-0.431202      15719.80
-0.367059      19775.90
-0.302940      28733.20
-0.238845      44224.45
-0.174775      65302.55
-0.110730      85938.25
-0.046709      99232.75
 0.017287     106806.90
 0.081259      96098.30
 0.145206      74186.85
 0.209129      51947.15
 0.273027      37151.40
 0.336901      27831.05
 0.400750      23251.45
 0.464574      22392.20
 0.528374      25488.30
 0.592149      29266.40
 0.655900      35159.85
 0.719627      41540.25
 0.783328      51668.45
 0.847006      62312.45
 0.910658      72678.45
 0.974286      82821.25
 1.037890      91884.55
 1.101469      99813.50
 1.165024     107362.75
 1.228554     112300.95
 1.292059     116307.05
 1.355540     117714.35
 1.418996     117378.95
 1.482428     119393.00
 1.545836     123169.15
 1.609218     126207.25
 1.672576     128535.20
 1.735910     132706.75
 1.799219     139845.40
 1.862504     146791.35
 1.925764     150671.90
 1.988999     151950.40
 2.052210     157068.20
 2.115397     162178.85
 2.178559     163704.55
 2.241696     164524.15
 2.304809     160205.70
 2.367897     162593.30
 2.430961     165075.35
 2.494000     163712.60
 2.557015     165604.10
 2.620005     167410.75
 2.682970     168380.25
 2.745911     170610.85
 2.808828     169544.25
 2.871720     176995.20
 2.934587     181649.25
 2.997430     185024.25
 3.060248     188075.30
 3.123042     195125.85
 3.185811     200330.40
 3.248556     202390.05
 3.311276     204214.45
 3.373971     208427.40
 3.436642     214990.25
 3.499289     225081.70
 3.561911     231325.70
 3.624508     236203.80
 3.687081     241636.85
 3.749630     241657.85
 3.812153     247393.30
 3.874653     246822.65
 3.937127     243403.05
 3.999578     240700.75
 4.062003     237122.20
 4.124404     236191.35
 4.186781     234136.35
 4.249133     228015.70
 4.311460     228402.75
 4.373763     226959.70
 4.436042     220588.95
 4.498295     213815.60
 4.560525     209168.95
 4.622729     205537.20
 4.684910     201798.75
 4.747065     197164.15
 4.809197     189455.65
 4.871303     186273.60
 4.933385     187795.90
 4.995443     181607.70
 5.057476     179687.20
 5.119484     173652.75
 5.181468     172301.30
 5.243427     167248.95
 5.305362     167943.95
 5.367272     165909.15
 5.429158     160818.00
 5.491019     158648.50
 5.552856     154604.10
 5.614668     149291.40
 5.676456     146576.65
 5.738219     144401.20
 5.799957     143103.80
 5.861671     140539.60
 5.923360     138742.20
 5.985025     134501.45
 6.046666     129493.05
 6.108281     128934.00
 6.169873     123169.00
 6.231439     121591.75
 6.292981     123440.90
 6.354499     120319.35
 6.415992     117456.00
 6.477461     113565.80
 6.538905     109785.80
 6.600324     106346.90
 6.661719     104787.30
 6.723089     103047.00
 6.784435     102033.75
 6.845756      99526.05
 6.907053      93907.65
 6.968325      91028.85
 7.029573      93135.25
 7.090796      91510.70
 7.151995      88780.75
 7.213169      85480.10
 7.274318      86406.75
 7.335443      86670.35
 7.396544      85036.40
 7.457619      80053.55
 7.518671      77733.25
 7.579698      74316.20
 7.640700      72807.10
 7.701677      72246.40
 7.762631      74165.30
 7.823559      69927.25
 7.884463      66242.00
 7.945343      66436.60
 8.006198      65195.40
 8.067028      64803.20
 8.127834      61047.35
 8.188616      60806.00
 8.249372      58412.20
 8.310105      58381.00
 8.370812      56631.75
 8.431496      56615.50
 8.492154      55629.45
 8.552788      54511.75
 8.613398      53015.40
 8.673983      48256.05
 8.734543      45851.60
 8.795079      48195.30
 8.855591      49280.85
 8.916078      48954.85
 8.976540      45255.00
 9.036978      46421.35
 9.097391      45584.35
 9.157780      43158.10
 9.218144      41004.35
 9.278484      39893.50
 9.338799      40044.15
 9.399089      39608.20
 9.459355      39787.90
 9.519597      41469.60
 9.579814      39587.75
 9.640006      36139.15
 9.700174      35767.15
 9.760317      36071.60
 9.820436      35472.70
 9.880530      35969.40
 9.940600      36372.00
 10.000645     35882.40
 10.060665     34275.95
 10.120661     33283.55
 10.180633     31457.60
 10.240580     32968.10
 10.300502     32396.40
 10.360400     30486.10
 10.420274     31520.75
 10.480122     30878.90
 10.539947     30836.85
 10.599746     28834.00
 10.659522     28833.95
 10.719272     29110.90
 10.778998     27505.55
 10.838700     27361.95
 10.898377     27559.25
 10.958029     27274.70
 11.017657     27003.30
 11.077261     28255.90
 11.136839     28357.45
 11.196394     26279.95
 11.255923     25793.25
 11.315429     25489.30
 11.374909     24844.40
 11.434366     24849.35
 11.493797     24849.40
 11.553204     25170.50
 11.612587     24519.50
 11.671945     23540.75
 11.731278     24729.95
 11.790587     24616.85
 11.849871     23402.90
 11.909131     22983.10
 11.968366     23229.75
 12.027577     22500.10
 12.086763     21602.20
 12.145925     21088.55
 12.205062     22363.30
 12.264175     21131.50
 12.323263     20244.25
 12.382326     22480.45
 12.441365     21852.90
 12.500379     20783.10
 12.559369     20283.60
 12.618335     19998.95
 12.677275     19639.10
 12.736192     21429.70
 12.795083     20452.80
 12.853950     19693.75
 12.912793     19646.35
 12.971611     19582.60
 13.030405     19274.25
 13.089174     19802.00
 13.147918     19263.05
 13.206638     18876.60
 13.265333     18804.80
 13.324004     20510.65
 13.382650     20454.90
 13.441272     19252.65
 13.499869     18688.80
 13.558442     19560.55
 13.616990     19666.60
 13.675514     19255.65
 13.734013     19193.55
 13.792487     18877.95
 13.850937     20717.60
 13.909362     19787.35
 13.967763     17745.85
 14.026140     17654.45
 14.084491     19365.25
 14.142819     19769.00
 14.201121     19297.00
 14.259399     18561.40
 14.317653     20328.40
 14.375882     21420.55
 14.434087     20399.05
 14.492267     20780.85
 14.550422     20214.90
 14.608553     18556.40
 14.666659     18922.35
 14.724741     18633.50
 14.782799     19393.70
 14.840831     19200.50
 14.898839     18690.20
 14.956823     19566.05
 15.014782     20203.25
 15.072717     21517.75
 15.130627     20975.55
 15.188512     20495.85
 15.246373     20380.45
 15.304210     20872.80
 15.362022     20710.45
 15.419809     21149.25
 15.477572     21890.30
 15.535310     21714.45
 15.593024     20775.95
 15.650713     22002.45
 15.708377     23587.80
 15.766017     24202.75
 15.823633     22852.70
 15.881224     24598.10
 15.938790     24689.50
 15.996332     25022.25
 16.053850     24914.75
 16.111343     23221.60
 16.168811     23353.45
 16.226255     23910.30
 16.283674     26212.60
 16.341069     26656.05
 16.398439     24166.15
 16.455784     24366.55
 16.513105     24455.85
 16.570402     25656.25
 16.627674     26597.30
 16.684921     26649.35
 16.742144     27208.85
 16.799342     29344.35
 16.856516     30578.90
 16.913665     30694.55
 16.970790     30542.20
 17.027890     31068.65
 17.084966     33200.35
 17.142017     36088.05
 17.199044     35300.30
 17.256046     36352.90
 17.313023     36760.60
 17.369976     37166.55
 17.426904     39976.15
 17.483808     41529.65
 17.540687     41461.15
 17.597542     42490.40
 17.654372     43839.25
 17.711178     46005.25
 17.767959     47743.65
 17.824716     48003.50
 17.881448     48999.65
 17.938155     50648.60
 17.994838     52506.20
 18.051497     53408.55
 18.108131     53234.75
 18.164740     54020.85
 18.221325     57535.85
 18.277885     58386.20
 18.334421     61293.05
 18.390932     64002.25
 18.447419     65292.25
 18.503881     67467.45
 18.560318     70131.85
 18.616731     71178.80
 18.673120     74397.95
 18.729484     81725.00
 18.785823     84136.35
 18.842138     85608.75
 18.898428     86761.35
 18.954694     93157.30
 19.010935     96299.90
 19.067152     97246.40
 19.123344    101662.35
 19.179512    105630.80
 19.235655    108980.15
 19.291773    112406.45
 19.347867    117369.10
 19.403937    125021.10
 19.459982    133464.90
 19.516002    138537.90
 19.571998    142830.30
 19.627969    149628.50
 19.683916    159713.70
 19.739838    168617.95
 19.795736    176091.95
 19.851609    183504.75
 19.907457    196973.85
 19.963281    209671.95
 20.019081    218193.80
 20.074856    232236.15
 20.130606    248340.70
 20.186332    260509.00
 20.242033    272414.75
 20.297710    281546.25
 20.353362    297363.05
 20.408990    313425.75
 20.464593    329339.60
 20.520172    347994.30
 20.575726    361420.30
 20.631255    377633.50
 20.686760    385394.50
 20.742241    389003.60
 20.797697    398203.45
 20.853128    406497.30
 20.908535    405416.75
 20.963917    399488.10
 21.019275    389833.40
 21.074608    377490.00
 21.129917    359867.15
 21.185201    342248.10
 21.240460    318881.05
 21.295695    297869.05
 21.350906    277179.60
 21.406092    253178.85
 21.461253    231874.65
 21.516390    214349.15
 21.571502    197986.85
 21.626590    183561.00
 21.681653    172288.85
 21.736692    159474.50
 21.791706    151685.60
 21.846696    140315.55
 21.901661    128165.60
 21.956602    121660.00
 22.011518    116079.05
 22.066409    108839.85
 22.121276    103589.50
 22.176118     97588.45
 22.230936     96204.05
 22.285729     91672.25
 22.340498     87138.70
 22.395242     84249.20
 22.449962     85324.15
 22.504657     85150.75
 22.559328     80927.30
 22.613974     83024.05
 22.668595     83614.65
 22.723192     83586.50
 22.777765     82373.35
 22.832313     84272.45
 22.886836     89158.20
 22.941335     89263.30
 22.995809     91034.70
 23.050259     94420.95
 23.104684     99108.20
 23.159084    101704.75
 23.213461    103208.40
 23.267812    106142.35
 23.322139    112010.90
 23.376442    111999.55
 23.430719    115354.35
 23.484973    119964.15
 23.539202    119608.10
 23.593406    122786.60
 23.647586    127731.80
 23.701741    127856.00
 23.755872    126014.35
 23.809978    126405.45
 23.864059    125324.90
 23.918116    127335.60
 23.972149    131189.00
 24.026157    134075.60
 24.080140    139557.25
 24.134099    136412.75
 24.188033    134393.60
 24.241943    136086.50
 24.295829    136311.90
 24.349689    133172.95
 24.403525    130031.40
 24.457337    131404.25
 24.511124    135313.10
 24.564887    132331.35
 24.618625    127959.10
 24.672338    126215.20
 24.726027    129368.05
 24.779692    127499.95
 24.833331    124552.30
 24.886947    123327.50
 24.940537    118835.95
 24.994104    117575.65
 25.047645    115009.50
 25.101162    113110.90
 25.154655    113040.20
 25.208123    112359.20
 25.261567    113197.45
 25.314986    110892.80
 25.368380    108232.70
 25.421750    104157.90
 25.475095    103193.15
 25.528416    103053.85
 25.581712    100311.85
 25.634984     96996.95
 25.688231     96372.95
 25.741454     96651.30
 25.794652     91923.90
 25.847826     87562.05
 25.900975     86977.45
 25.954099     85575.90
 26.007199     83544.65
 26.060274     80105.40
 26.113325     79694.95
 26.166352     76154.45
 26.219353     75219.95
 26.272331     75548.55
 26.325283     74364.60
 26.378211     73243.25
 26.431115     72427.00
 26.483994     71211.00
 26.536849     69319.75
 26.589679     68337.20
 26.642484     66785.65
 26.695265     65716.85
 26.748021     64651.70
 26.800753     62234.25
 26.853460     62083.75
 26.906143     61669.95
 26.958801     59775.50
 27.011435     56994.25
 27.064044     55660.25
 27.116629     54822.30
 27.169189     55609.85
 27.221724     54210.35
 27.274235     53493.75
 27.326722     51438.35
 27.379183     50236.30
 27.431621     52550.30
 27.484034     50228.15
 27.536422     49979.55
 27.588785     48371.50
 27.641125     48238.15
 27.693439     46897.10
 27.745729     46003.25
 27.797995     45591.70
 27.850236     43145.95
 27.902452     42186.75
 27.954644     43776.65
 28.006812     43377.80
 28.058954     41888.70
 28.111073     39841.90
 28.163166     39497.80
 28.215236     41159.90
 28.267280     40910.20
 28.319300     41165.90
 28.371296     40778.20
 28.423267     39815.75
 28.475214     38070.00
 28.527136     38429.60
 28.579033     36844.55
 28.630906     36712.80
 28.682754     37345.75
 28.734578     35139.80
 28.786377     34996.55
 28.838152     35698.60
 28.889902     34527.70
 28.941628     34102.55
 28.993329     33585.40
 29.045005     33462.75
 29.096657     32658.60
 29.148285     32733.35
 29.199888     31940.30
 29.251466     31074.10
 29.303020     30271.00
 29.354549     30967.60
 29.406054     30129.95
 29.457534     28835.70
 29.508990     29829.55
 29.560421     30580.00
 29.611828     28550.35
 29.663210     27289.25
 29.714567     26591.30
 29.765900     26695.35
 29.817208     27768.20
 29.868492     28829.40
 29.919752     25956.45
 29.970986     24475.20
 30.022197     25626.80
 30.073382     26474.95
 30.124544     26237.45
 30.175680     27768.55
 30.226792     25498.80
 30.277880     24294.95
 30.328943     23594.00
 30.379981     22120.15
 30.430995     20922.35
 30.481985     22790.15
 30.532950     22815.85
 30.583890     22762.90
 30.634806     23069.85
 30.685697     20349.25
 30.736564     20283.80
 30.787406     20558.50
 30.838223     20288.85
 30.889016     19276.30
 30.939785     19542.50
 30.990529     19526.60
 31.041248     19062.60
 31.091943     18882.95
 31.142613     17630.60
 31.193259     17416.50
 31.243881     18518.15
 31.294477     18465.70
 31.345049     18139.10
 31.395597     18010.70
 31.446120     17492.70
 31.496619     17856.95
 31.547093     17717.25
 31.597542     18426.40
 31.647967     18357.40
 31.698368     17192.85
 31.748743     17144.35
 31.799095     16080.90
 31.849422     16107.20
 31.899724     16070.95
 31.950001     17683.60
 32.000255     17953.95
 32.050483     17446.95
 32.100687     16922.25
 32.150867     15958.35
 32.201022     16183.05
 32.251152     16064.45
 32.301258     15292.65
 32.351339     13770.85
 32.401396     14345.60
 32.451429     14941.75
 32.501436     16045.40
 32.551419     16503.40
 32.601378     15209.10
 32.651312     15014.55
 32.701222     13787.85
 32.751107     14375.75
 32.800967     14606.65
 32.850803     14288.55
 32.900615     14118.20
 32.950402     14396.80
 33.000164     15104.60
 33.049902     15927.65
 33.099615     15916.10
 33.149304     15064.70
 33.198968     15816.30
 33.248607     13962.60
 33.298222     13380.95
 33.347813     14444.90
 33.397379     14171.65
 33.446920     14113.50
 33.496437     14523.35
 33.545930     15313.15
 33.595397     15857.65
 33.644841     15772.30
 33.694259     14923.60
 33.743654     13655.10
 33.793023     14625.05
 33.842368     13688.25
 33.891689     13690.85
 33.940985     13072.20
 33.990257     14495.85
 34.039504     16205.45
 34.088726     16111.35
 34.137924     15244.80
 34.187097     15704.30
 34.236246     15017.60
 34.285370     14429.35
 34.334470     13966.90
 34.383545     13996.50
 34.432596     14440.15
 34.481622     13885.70
 34.530623     14182.35
 34.579600     15286.50
 34.628553     15916.75
 34.677481     14322.90
 34.726384     14394.20
 34.775263     14104.30
 34.824117     13855.95
 34.872947     13883.30
 34.921752     13523.35
 34.970533     13863.25
 35.019289     13434.90
 35.068020     13895.05
 35.116728     14678.40
 35.165410     14971.85
 35.214068     14792.55
 35.262701     13598.50
 35.311310     12736.35
 35.359895     12724.50
 35.408454     13632.35
 35.456990     12445.20
 35.505500     13525.70
 35.553987     14660.80
 35.602448     14148.20
 35.650885     13599.15
 35.699298     15082.70
 35.747686     15488.65
 35.796049     14683.15
 35.844388     14321.95
 35.892703     13323.95
 35.940992     14653.50
 35.989258     14300.90
 36.037499     14207.10
 36.085715     13957.05
 36.133906     14293.60
 36.182074     14378.45
 36.230216     14521.50
 36.278334     13826.65
 36.326428     14437.45
 36.374497     13037.10
 36.422541     13654.05
 36.470561     13871.85
 36.518556     14420.30
 36.566527     15152.80
 36.614473     15713.55
 36.662395     14176.10
 36.710292     13939.25
 36.758165     14140.30
 36.806013     16233.60
 36.853837     17583.80
 36.901636     16086.80
 36.949410     15623.60
 36.997160     17069.30
 37.044885     15984.20
 37.092586     16685.05
 37.140263     16174.80
 37.187914     17110.20
 37.235542     15962.15
 37.283144     15033.55
 37.330722     15648.45
 37.378276     17619.20
 37.425805     17609.20
 37.473310     17337.95
 37.520790     16843.50
 37.568245     18415.05
 37.615676     19660.65
 37.663082     20215.20
 37.710464     19414.55
 37.757821     20174.55
 37.805154     20375.30
 37.852462     22177.70
 37.899746     22977.10
 37.947005     22474.40
 37.994240     21583.65
 38.041450     21937.95
 38.088635     20672.50
 38.135796     21229.80
 38.182932     22051.00
 38.230044     22611.40
 38.277132     24168.05
 38.324194     24419.15
 38.371233     24150.15
 38.418246     24608.10
 38.465235     24792.45
 38.512200     26138.05
 38.559140     28215.75
 38.606056     28565.50
 38.652947     26822.95
 38.699813     26522.35
 38.746655     25198.20
 38.793472     25888.15
 38.840265     26381.60
 38.887034     25480.25
 38.933777     25118.15
 38.980496     24785.00
 39.027191     25198.25
 39.073861     25059.50
 39.120507     24485.35
 39.167128     22539.65
 39.213724     22339.15
 39.260296     22351.00
 39.306844     22686.95
 39.353367     21136.15
 39.399865     20214.60
 39.446339     22395.85
 39.492788     21504.40
 39.539213     20203.35
 39.585613     19960.25
 39.631988     21099.30
 39.678339     21239.35
 39.724666     20331.10
 39.770968     19798.65
 39.817245     20229.95
 39.863498     19065.40
 39.909727     19444.70
 39.955931     19283.20
 40.002110     20139.25
 40.048265     20251.40
 40.094395     20489.80
 40.140500     19404.20
 40.186582     19188.40
 40.232638     19388.00
 40.278670     20259.45
 40.324678     18905.25
 40.370661     18179.35
 40.416619     19134.15
 40.462553     18709.60
 40.508462     18918.45
 40.554347     19409.25
 40.600207     20050.10
 40.646043     20235.80
 40.691854     18773.40
 40.737641     17839.45
 40.783403     18281.10
 40.829141     19563.85
 40.874854     20175.70
 40.920542     20549.30
 40.966206     20569.20
 41.011845     21155.40
 41.057460     19699.25
 41.103050     19099.95
 41.148616     20207.80
 41.194157     20412.60
 41.239674     20295.00
 41.285166     18892.70
 41.330634     20282.55
 41.376077     18658.95
 41.421495     18395.20
 41.466889     18947.20
 41.512259     20358.90
 41.557604     21167.90
 41.602924     21758.10
 41.648220     20933.20
 41.693491     20671.05
 41.738738     21332.80
 41.783960     20462.20
 41.829158     19435.50
 41.874331     19350.85
 41.919479     18137.90
 41.964603     17541.35
 42.009703     17944.05
 42.054778     18776.95
 42.099828     17616.60
 42.144854     17762.20
 42.189855     18386.40
 42.234832     18048.50
 42.279784     18845.30
 42.324712     20931.90
 42.369615     19078.70
 42.414494     17944.80
 42.459348     17082.45
 42.504177     16693.25
 42.548982     17921.10
 42.593763     17580.15
 42.638518     18023.55
 42.683250     19394.10
 42.727957     18210.00
 42.772639     17802.35
 42.817297     18083.85
 42.861930     18623.35
 42.906538     16833.75
 42.951123     16909.50
 42.995682     17845.25
 43.040217     17514.75
 43.084728     15993.90
 43.129214     16758.50
 43.173675     16653.70
 43.218112     15918.50
 43.262524     15725.00
 43.306912     16998.60
 43.351275     17987.90
 43.395614     18424.05
 43.439928     16915.90
 43.484218     15795.85
 43.528483     16072.40
 43.572723     15721.10
 43.616939     14717.65
 43.661131     14025.90
 43.705298     14162.35
 43.749440     16647.15
 43.793558     18493.65
 43.837651     18103.55
 43.881720     16538.90
 43.925764     16475.25
 43.969784     15684.30
 44.013779     15015.70
 44.057749     15386.35
 44.101695     15722.20
 44.145617     16824.35
 44.189514     17852.30
 44.233386     17758.85
 44.277234     17946.30
 44.321057     18326.20
 44.364856     19036.30
 44.408630     18145.35
 44.452380     17228.30
 44.496105     16958.65
 44.539806     16126.75
 44.583482     17022.90
 44.627133     16595.05
 44.670760     16886.70
 44.714363     17716.40
 44.757941     18702.75
 44.801494     18653.30
 44.845023     16795.20
 44.888527     17716.65
 44.932007     18616.20
 44.975462     18669.45
 45.018893     18074.80
 45.062299     16142.30
 45.105681     16643.15
 45.149038     17180.90
 45.192370     17837.05
 45.235678     17697.85
 45.278962     18854.35
 45.322220     19489.20
 45.365455     19253.00
 45.408665     17974.40
 45.451850     17571.80
 45.495010     18137.05
 45.538147     18048.30
 45.581258     16455.75
 45.624345     18801.20
 45.667408     19079.95
 45.710446     19034.00
 45.753459     18663.75
 45.796448     17937.25
 45.839413     18764.05
 45.882353     18112.95
 45.925268     17701.85
 45.968159     18574.65
 46.011025     19142.10
 46.053866     19553.90
 46.096684     18939.55
 46.139476     17012.70
 46.182244     17123.30
 46.224988     17328.40
 46.267707     17327.00
 46.310401     17085.15
 46.353071     17039.45
 46.395716     17171.30
 46.438337     17467.75
 46.480933     16839.45
 46.523505     15759.55
 46.566052     15017.50
 46.608575     15151.70
 46.651073     16189.30
 46.693547     16527.85
 46.735996     16340.55
 46.778420     15710.15
 46.820820     15288.00
 46.863195     15149.45
 46.905546     14639.95
 46.947873     14368.75
 46.990174     14228.10
 47.032452     14463.10
 47.074704     13917.70
 47.116932     14119.40
 47.159136     13277.70
 47.201315     12633.10
 47.243469     12451.20
 47.285599     13150.20
 47.327705     12831.60
 47.369786     12997.85
 47.411842     12300.45
 47.453874     12480.35
 47.495881     12245.55
 47.537864     12573.40
 47.579822     12021.45
 47.621756     11707.10
 47.663665     12663.55
 47.705549     12702.05
 47.747409     11959.60
 47.789245     11916.70
 47.831056     10979.15
 47.872842     10878.10
 47.914604     10131.80
 47.956341     10253.90
 47.998054      9944.65
 48.039742     11126.85
 48.081406     10929.60
 48.123045     11493.80
 48.164660     10915.95
 48.206250     10223.30
 48.247815     10103.25
 48.289356     11010.00
 48.330873     12139.10
 48.372365     12565.80
 48.413832     11146.60
 48.455275      9565.30
 48.496693      8885.85
 48.538087      9466.05
 48.579456     10306.55
 48.620801      9875.25
 48.662121      9765.80
 48.703417      9755.15
 48.744688      9911.25
 48.785934     10098.45
 48.827156     10241.55
 48.868353     10277.30
 48.909526      9906.50
 48.950675      9086.25
 48.991798      9055.65
 49.032898      8157.45
 49.073972      8565.95
 49.115022      9719.30
 49.156048      9482.05
 49.197049      9489.40
 49.238026     10360.00
 49.278978      9684.05
 49.319905      9607.35
 49.360808      9936.95
 49.401686      9839.40
 49.442540      8907.60
 49.483369      8437.95
 49.524174      8458.95
 49.564954      7958.10
 49.605710      8982.30
 49.646441      9426.80
 49.687148      9542.60
 49.727830      8796.55
 49.768487      9075.35
 49.809120      9844.90
 49.849729     10868.30
 49.890313      9861.65
 49.930872      9849.65
 49.971407      9889.85
 50.011917      9737.90
 50.052403     10841.75
 50.092864     10388.10
 50.133300     10036.30
 50.173713      9736.15
 50.214100      9649.80
 50.254463      9057.50
 50.294802      8486.25
 50.335115      9922.40
 50.375405      9367.70
 50.415670     10088.90
 50.455910      9796.95
 50.496126      9806.90
 50.536317     10130.05
 50.576484     11573.15
 50.616626     10964.45
 50.656743      9599.85
 50.696836      9412.65
 50.736905     10949.15
 50.776949     10244.00
 50.816968      8229.05
 50.856963      9302.35
 50.896933     11154.70
 50.936879     10736.35
 50.976801     10633.55
 51.016697     10708.20
 51.056569     10981.90
 51.096417     10675.45
 51.136240     10192.20
 51.176039     10421.60
 51.215813     10706.00
 51.255562     10561.60
 51.295287     10754.10
 51.334987     11193.75
 51.374663     10485.65
 51.414315      9826.10
 51.453941     10258.10
 51.493544      9228.35
 51.533121      8790.20
 51.572674      9026.40
 51.612203      9903.50
 51.651707      9876.25
 51.691187      9145.00
 51.730642      9325.70
 51.770072      9678.15
 51.809478      9767.10
 51.848859      9271.40
 51.888216      8909.40
 51.927548      9205.05
 51.966856     10379.25
 52.006139      9446.65
 52.045398      9348.55
 52.084632      9251.10
 52.123841      8479.70
 52.163026      7924.05
 52.202187      9340.70
 52.241323      9222.05
 52.280434      8327.25
 52.319521      8448.80
 52.358583      8627.40
 52.397621      8621.70
 52.436634      9653.15
 52.475623     10171.80
 52.514587     10263.00
 52.553527     10515.45
 52.592442     10169.20
 52.631332      8856.40
 52.670198      8769.30
 52.709040      8808.15
 52.747857      9721.65
 52.786649      9645.40
 52.825417      9708.45
 52.864160     10037.55
 52.902879      9869.55
 52.941573      8873.55
 52.980243      9655.05
 53.018888      9969.65
 53.057508      9922.95
 53.096105      9447.90
 53.134676      9397.65
 53.173223     10014.75
 53.211745     10085.45
 53.250243      9504.55
 53.288717      9418.40
 53.327165      9264.60
 53.365590      8974.80
 53.403989      9107.55
 53.442364      8942.20
 53.480715      9356.15
 53.519041      9635.30
 53.557343      9252.85
 53.595620     10235.10
 53.633872     10325.25
 53.672100      9954.55
 53.710303      9534.05
 53.748482     10056.20
 53.786636      8920.15
 53.824766      8673.90
 53.862871      9293.30
 53.900952      9343.45
 53.939008      9081.20
 53.977040      9660.80
 54.015047      8656.25
 54.053029      8782.75
 54.090987      8370.05
 54.128921      8917.65
 54.166829      8667.10
 54.204714      9359.90
 54.242574      8828.35
 54.280409      8871.50
 54.318220     10287.95
 54.356006     10107.10
 54.393767      9639.45
 54.431504     10102.25
 54.469217     10063.65
 54.506905      9600.25
 54.544568      9244.40
 54.582207      9341.20
 54.619822      9062.70
 54.657412      8489.85
 54.694977      9352.05
 54.732518      9133.75
 54.770034      9413.70
 54.807525      9472.55
 54.844993      8694.80
 54.882435      8687.40
 54.919853      8657.60
 54.957247      8141.45
 54.994616      8271.85
 55.031960      8626.55
 55.069280      9831.00
 55.106575      9523.60
 55.143846      8932.65
 55.181092      8085.55
 55.218314      9205.15
 55.255511      9137.95
 55.292684      8886.35
 55.329832      9760.80
 55.366955     10263.60
 55.404055      9006.45
 55.441129      8469.90
 55.478179      8759.50
 55.515204      7936.90
 55.552205      7541.65
 55.589181      8328.10
 55.626133      8878.40
 55.663060      7820.80
 55.699963      7211.85
 55.736841      7781.30
 55.773695      8900.40
 55.810524      9589.95
 55.847328      7894.60
 55.884108      8587.60
 55.920864      8588.80
 55.957595      7251.45
 55.994301      7437.25
 56.030983      7466.65
 56.067640      8220.75
 56.104273      7965.05
 56.140881      8211.00
 56.177465      8595.20
 56.214024      9015.95
 56.250558      9115.35
 56.287068      9156.35
 56.323554      8663.15
 56.360015      7840.50
 56.396451      7713.60
 56.432863      8403.15
 56.469250      8192.55
 56.505613      7912.10
 56.541951      7937.85
 56.578265      7879.25
 56.614554      7624.80
 56.650819      8507.90
 56.687059      7796.20
 56.723274      7196.55
 56.759465      7420.00
 56.795632      7489.55
 56.831774      7233.45
 56.867891      6768.75
 56.903984      6755.35
 56.940052      7400.30
 56.976096      7322.15
 57.012115      8108.70
 57.048110      9024.10
 57.084080      8031.85
 57.120025      7341.40
 57.155946      7649.45
 57.191843      8525.55
 57.227715      8242.95
 57.263562      7764.80
 57.299385      7473.65
 57.335183      8329.35
 57.370957      8269.55
 57.406706      7368.45
 57.442431      8334.75
 57.478131      8802.60
 57.513807     10018.45
 57.549458      9137.05
 57.585084      8659.40
 57.620686      8097.90
 57.656264      7319.45
 57.691817      7133.80
 57.727345      8523.40
 57.762849      8516.80
 57.798328      8136.65
 57.833783      7358.80
 57.869213      7944.05
 57.904619      9614.65
 57.940000      9313.45
 57.975356      7778.60
 58.010688      7876.85
 58.045996      8976.50
 58.081279      8924.00
 58.116537      8777.55
 58.151771      8786.90
 58.186980      8948.45
 58.222165      9005.55
 58.257325      8750.90
 58.292461      8374.30
 58.327572      9210.00
 58.362659      8690.35
 58.397721      9934.65
 58.432759      9592.55
 58.467772     10432.30
 58.502760      9408.60
 58.537724      9284.70
 58.572663      9230.90
 58.607578     10647.30
 58.642468     10190.50
 58.677334      9984.55
 58.712175     10573.60
 58.746992     11865.30
 58.781784     11587.55
 58.816552     11077.65
 58.851295     11537.75
 58.886013     13324.70
 58.920707     12854.25
 58.955377     11801.95
 58.990022     12804.85
 59.024642     13321.80
 59.059238     12500.40
 59.093809     12574.55
 59.128356     12714.85
 59.162878     12307.75
 59.197375     14678.10
 59.231849     14965.65
 59.266297     13329.70
 59.300721     12401.30
 59.335121     12309.20
 59.369495     15076.40
 59.403846     15249.85
 59.438172     15146.60
 59.472473     15146.70
 59.506750     13939.00
 59.541002     15234.85
 59.575230     15992.80
 59.609433     14568.25
 59.643611     14545.90
 59.677765     15004.90
 59.711895     14628.25
 59.746000     14426.20
 59.780080     14708.55
 59.814136     15425.85
 59.848168     15406.70
 59.882174     14217.80
 59.916157     13651.55
 59.950114     13840.35
 59.984047     14168.80
 60.017956     14425.00
 60.051840     14514.10
 60.085700     13609.90
 60.119535     13404.60
 60.153345     13088.65
 60.187131     11918.60
 60.220893     11402.30
 60.254629     12632.90
 60.288342     12465.85
 60.322029     13247.35
 60.355693     13013.90
 60.389331     11079.50
 60.422946     10346.95
 60.456535     10231.30
 60.490100     10166.55
 60.523641     10043.90
 60.557157      9714.10
 60.590648     10005.10
 60.624115     10703.35
 60.657557     11231.95
 60.690975     11366.45
 60.724368     10030.50
 60.757737      9132.80
 60.791081      8507.35
 60.824401      8704.55
 60.857696      9064.40
 60.890967      9207.65
 60.924213      8889.40
 60.957434      8174.90
 60.990631      7925.70
 61.023804      8624.30
 61.056951      8083.75
 61.090075      8751.15
 61.123173      8980.30
 61.156248      9352.10
 61.189297      9130.40
 61.222323      8596.60
 61.255323      8221.70
 61.288299      7558.40
 61.321251      8087.85
 61.354178      7649.80
 61.387080      6787.85
 61.419958      7280.40
 61.452811      7376.40
 61.485640      6619.00
 61.518445      6658.40
 61.551224      6792.05
 61.583979      7294.60
 61.616710      6911.95
 61.649416      7256.35
 61.682098      6170.70
 61.714755      7035.70
 61.747387      6515.15
 61.779995      6396.40
 61.812579      6355.55
 61.845138      6226.40
 61.877672      6424.05
 61.910182      6918.65
 61.942667      6269.50
 61.975128      6113.60
 62.007564      5922.50
 62.039975      5736.05
 62.072362      5153.20
 62.104725      5277.05
 62.137063      5535.50
 62.169376      6406.65
 62.201665      6440.00
 62.233930      5546.25
 62.266169      4802.35
 62.298385      5745.30
 62.330576      6096.95
 62.362742      4893.30
 62.394883      5058.10
 62.427001      5239.80
 62.459093      5853.25
 62.491161      5580.00
 62.523205      5455.75
 62.555224      5759.10
 62.587218      7498.60
 62.619188      7312.05
 62.651133      6452.90
 62.683054      5282.15
 62.714950      5058.40
 62.746822      4729.45
 62.778669      5188.65
 62.810492      5577.90
 62.842290      5738.70
 62.874063      4767.15
 62.905812      4234.15
 62.937537      4776.95
 62.969237      4282.70
 63.000912      5569.95
 63.032563      5872.10
 63.064189      5699.25
 63.095791      6225.70
 63.127368      5803.70
 63.158921      6118.05
 63.190449      7274.40
 63.221953      6865.10
 63.253432      6039.75
 63.284886      5825.30
 63.316316      5984.40
 63.347722      6142.25
 63.379102      5619.15
 63.410459      5818.20
 63.441791      5622.05
 63.473098      5784.35
 63.504381      5251.60
 63.535639      5745.25
 63.566872      5796.50
 63.598081      5564.55
 63.629266      5128.60
 63.660426      4785.10
 63.691561      5191.50
 63.722672      5825.60
 63.753759      6189.95
 63.784821      5917.90
 63.815858      4572.90
 63.846871      5171.60
 63.877859      5704.75
 63.908823      5103.35
 63.939762      5007.50
 63.970676      5982.85
 64.001566      6740.95
 64.032432      6645.90
 64.063273      6471.70
 64.094089      6470.15
 64.124881      5759.30
 64.155649      6340.50
 64.186391      6463.30
 64.217110      5466.05
 64.247803      4777.25
 64.278473      4651.55
 64.309117      5118.65
 64.339737      5035.00
 64.370333      5009.65
 64.400904      4814.35
 64.431450      5522.85
 64.461972      7011.35
 64.492470      5444.00
 64.522943      5254.15
 64.553391      4925.50
 64.583815      4528.60
 64.614214      3907.70
 64.644589      4481.75
 64.674939      5053.65
 64.705264      5673.95
 64.735565      6068.20
 64.765842      5257.90
 64.796094      5540.05
 64.826321      5390.65
 64.856524      4839.95
 64.886703      4754.95
 64.916856      5731.55
 64.946986      6069.05
 64.977090      5941.05
 65.007171      6374.50
 65.037226      6109.00
 65.067257      5780.45
 65.097264      5503.25
 65.127246      5661.50
 65.157203      6415.55
 65.187136      5539.95
 65.217045      5461.70
 65.246929      5298.25
 65.276788      5611.90
 65.306623      6066.00
 65.336433      6046.50
 65.366219      5004.95
 65.395980      4269.25
 65.425716      4903.60
 65.455429      5512.70
 65.485116      5814.30
 65.514779      5767.10
 65.544417      6128.85
 65.574031      6102.20
 65.603621      5394.00
 65.633186      4958.40
 65.662726      5410.10
 65.692242      5534.20
 65.721733      5264.95
 65.751199      4950.65
 65.780642      4794.10
 65.810059      5188.00
 65.839452      5057.90
 65.868821      5431.65
 65.898165      5242.15
 65.927484      4973.10
 65.956779      4926.45
 65.986049      4801.80
 66.015295      3636.35
 66.044516      3371.00
 66.073713      3263.85
 66.102885      2890.45
 66.132033      2156.50
 66.161156      1464.95
 66.190254       972.90