# La4Ni3O10 Ni L3 edge RIXS
# Room temperature
# RIXS resolution ~ 0.4 eV
# Horizontal scattering geometry, theta = 15 degrees, 2theta = 95 degrees
# SEXTANTS beamline, SOLEIL synchrotron
# Energy loss 	 Intensity
-45.537800        44.85
-45.458245       432.85
-45.378714       497.85
-45.299207       413.65
-45.219725       947.40
-45.140268      1238.10
-45.060835      1608.05
-44.981427      1316.00
-44.902043      1576.55
-44.822684      1306.35
-44.743350      1528.80
-44.664040       827.40
-44.584754      1174.70
-44.505493      1331.30
-44.426257      1283.05
-44.347045      1547.80
-44.267858      2153.85
-44.188695      1294.05
-44.109557       958.75
-44.030443      1171.40
-43.951354       902.60
-43.872289       611.05
-43.793249      1126.40
-43.714233       976.75
-43.635242      1659.60
-43.556276      2303.00
-43.477334      1434.60
-43.398416       102.10
-43.319524       687.95
-43.240655      1572.75
-43.161812      1509.70
-43.082992      1728.90
-43.004198      1751.40
-42.925427      1263.90
-42.846682       815.20
-42.767961      1406.40
-42.689264       991.65
-42.610592      1346.75
-42.531945       553.70
-42.453322       584.60
-42.374724       762.80
-42.296150       615.15
-42.217601       798.25
-42.139076      1028.25
-42.060576       728.60
-41.982100      1000.30
-41.903649      1336.35
-41.825222      1174.20
-41.746820       942.00
-41.668443      1225.00
-41.590090       822.15
-41.511761       952.65
-41.433458      1773.05
-41.355178       455.05
-41.276924        87.75
-41.198693       548.65
-41.120488       353.20
-41.042306       519.70
-40.964150       644.10
-40.886018       970.80
-40.807910      1102.05
-40.729827       796.85
-40.651769      1528.45
-40.573735      1832.95
-40.495726      1547.85
-40.417741      1000.40
-40.339780      1338.35
-40.261845      1049.25
-40.183933      1874.40
-40.106047       842.15
-40.028185       999.50
-39.950347      1337.40
-39.872534      1899.85
-39.794746      1240.80
-39.716982      1296.75
-39.639242      1341.80
-39.561527      1526.40
-39.483837      1458.85
-39.406171      1185.45
-39.328530       614.50
-39.250913       549.45
-39.173321      1029.15
-39.095754      1225.05
-39.018210       940.20
-38.940692      1420.50
-38.863198      1602.80
-38.785728      1069.25
-38.708284      1422.25
-38.630863      1055.80
-38.553467       778.10
-38.476096       999.90
-38.398749      1177.90
-38.321427      1354.55
-38.244129      1202.35
-38.166856       657.65
-38.089608       155.45
-38.012384       837.90
-37.935184       550.70
-37.858009       966.90
-37.780859       852.25
-37.703733      1699.50
-37.626632      1509.20
-37.549555      1726.10
-37.472503      1405.70
-37.395475      1561.00
-37.318472      1312.20
-37.241493      1842.60
-37.164539      1243.40
-37.087609      1545.45
-37.010704       515.75
-36.933824       867.20
-36.856968       976.25
-36.780137      1065.20
-36.703330      1808.25
-36.626547      1417.95
-36.549790       454.20
-36.473057      1047.35
-36.396348      1539.20
-36.319664      1605.30
-36.243004      1020.60
-36.166369      1502.40
-36.089759      1443.80
-36.013173      1587.25
-35.936611      1559.10
-35.860074      1188.90
-35.783562       584.45
-35.707074       535.65
-35.630611       488.90
-35.554172       609.50
-35.477758       928.60
-35.401368       878.80
-35.325003      1179.40
-35.248663       940.85
-35.172347      1029.00
-35.096055      1819.65
-35.019788      1941.25
-34.943546      1592.35
-34.867328      1665.60
-34.791135      1647.05
-34.714966      2078.00
-34.638822      1147.20
-34.562702       950.60
-34.486607       857.40
-34.410536       128.85
-34.334490       894.10
-34.258469      1193.50
-34.182472      1176.65
-34.106499       545.90
-34.030551       915.20
-33.954628      1014.95
-33.878729       893.00
-33.802855      1077.90
-33.727005      1345.20
-33.651180      1730.60
-33.575379      1265.40
-33.499603       771.25
-33.423852       796.55
-33.348125      2217.45
-33.272422      2004.80
-33.196744       923.60
-33.121091      1040.00
-33.045462      1168.65
-32.969858      1550.45
-32.894278      1068.65
-32.818723      1629.90
-32.743192      1775.85
-32.667686      1616.35
-32.592204      1532.45
-32.516747      2007.40
-32.441315      1468.90
-32.365907      2269.90
-32.290523      2460.65
-32.215164      2161.80
-32.139830      1532.95
-32.064520      1613.10
-31.989235      1365.60
-31.913974      1632.95
-31.838738      1414.65
-31.763526      1595.00
-31.688339       928.80
-31.613177       649.55
-31.538039      1074.20
-31.462925      1536.95
-31.387836       836.65
-31.312772      1722.95
-31.237732      1724.30
-31.162717      1974.35
-31.087726      1163.80
-31.012760      1277.65
-30.937818      1616.45
-30.862901      1407.25
-30.788008      1176.55
-30.713140      2155.25
-30.638296      2113.15
-30.563477      2256.00
-30.488683      1260.95
-30.413913      1477.70
-30.339168      1584.50
-30.264447      2471.15
-30.189751      2448.25
-30.115079      2135.30
-30.040432      1722.70
-29.965809       938.55
-29.891211       736.90
-29.816637      1822.20
-29.742088      1620.90
-29.667564      1181.10
-29.593064      2443.10
-29.518588      2023.05
-29.444137      1544.20
-29.369711      1303.20
-29.295309      1498.25
-29.220932      2046.15
-29.146579      1899.00
-29.072251      1951.80
-28.997948      1713.55
-28.923669      2227.20
-28.849414      1920.95
-28.775184      1326.85
-28.700979      1150.25
-28.626798      1711.05
-28.552641      1730.35
-28.478509      1535.25
-28.404402      1709.15
-28.330319      1646.45
-28.256261      1128.40
-28.182227      1146.55
-28.108218       942.65
-28.034234      1310.40
-27.960274       958.80
-27.886338       866.80
-27.812427       983.60
-27.738541       985.95
-27.664679      1144.60
-27.590842      1071.30
-27.517029      1037.25
-27.443240      1179.95
-27.369477      1325.30
-27.295738      1493.45
-27.222023      2306.45
-27.148333      1925.05
-27.074667      1754.00
-27.001026      1289.35
-26.927410      1350.25
-26.853818      1453.20
-26.780251      2412.70
-26.706708       970.75
-26.633189      1074.65
-26.559696      1734.55
-26.486226      1537.85
-26.412782      1286.55
-26.339362      1088.40
-26.265966      1925.30
-26.192595      1073.90
-26.119248       622.55
-26.045926      1294.75
-25.972629      1526.30
-25.899356      1315.20
-25.826108       443.55
-25.752884       587.90
-25.679685      1623.60
-25.606510      2467.90
-25.533360      1046.35
-25.460234       793.40
-25.387133      1314.65
-25.314056       968.50
-25.241004      1456.25
-25.167977      2111.60
-25.094974      1267.60
-25.021996      2113.10
-24.949042      1500.50
-24.876112       961.75
-24.803208      1025.15
-24.730327      1342.20
-24.657472      1524.10
-24.584641      1221.45
-24.511834       506.65
-24.439052       688.10
-24.366294       762.75
-24.293561      1929.05
-24.220853      1263.65
-24.148169      1559.75
-24.075510      1662.40
-24.002875      1152.70
-23.930265      1097.10
-23.857679       707.40
-23.785118       598.90
-23.712581      1222.05
-23.640069      1141.15
-23.567581      1259.70
-23.495118       930.85
-23.422680       566.60
-23.350266      1262.60
-23.277876       638.75
-23.205512       481.50
-23.133171      1027.65
-23.060856      1261.40
-22.988564      1288.35
-22.916298      1437.30
-22.844055      1707.30
-22.771838      1674.50
-22.699645       992.50
-22.627476      1387.50
-22.555332       843.40
-22.483213       895.00
-22.411118       653.85
-22.339047      1629.70
-22.267002      1394.40
-22.194980      1270.55
-22.122984       487.20
-22.051011      -114.55
-21.979064       578.05
-21.907141       692.40
-21.835242       -30.10
-21.763368       -27.45
-21.691519       721.20
-21.619694      1454.05
-21.547893       985.50
-21.476117       734.55
-21.404366       513.20
-21.332639       853.00
-21.260937      1127.90
-21.189259      1001.10
-21.117606       705.00
-21.045977       169.80
-20.974373      -798.35
-20.902794      -100.45
-20.831239       222.90
-20.759708      1542.15
-20.688202      1286.40
-20.616721       559.50
-20.545264       367.80
-20.473832       829.25
-20.402424       499.65
-20.331041       751.80
-20.259682       751.40
-20.188348      1307.65
-20.117039       770.35
-20.045754       519.10
-19.974493       803.05
-19.903257      1605.20
-19.832046      1679.85
-19.760859      1340.30
-19.689696       736.55
-19.618559      1038.80
-19.547445       940.45
-19.476357      1124.35
-19.405292      1046.90
-19.334253       751.70
-19.263238       384.15
-19.192247       731.45
-19.121281       288.15
-19.050340       347.45
-18.979423      1487.90
-18.908530      1041.45
-18.837663        92.80
-18.766819       439.85
-18.696001       464.00
-18.625206       196.30
-18.554437       640.85
-18.483691      1272.80
-18.412971       520.40
-18.342275       473.10
-18.271603        61.10
-18.200956       253.75
-18.130334       308.45
-18.059736      1418.70
-17.989163       828.90
-17.918614       216.00
-17.848090       547.80
-17.777590       997.60
-17.707115       738.55
-17.636664        36.80
-17.566238      -176.75
-17.495836      -710.00
-17.425459      -164.05
-17.355107       546.70
-17.284779       475.75
-17.214476       332.55
-17.144197       461.80
-17.073942       375.90
-17.003713       880.15
-16.933507      1498.00
-16.863327      1197.75
-16.793171      1328.05
-16.723039       972.40
-16.652932       239.50
-16.582849       481.35
-16.512791      1494.15
-16.442758      1103.85
-16.372749       781.70
-16.302765       744.95
-16.232805      1386.90
-16.162870      1030.95
-16.092959        64.25
-16.023073      1021.20
-15.953211      1084.85
-15.883374       532.60
-15.813561       402.65
-15.743773      1758.40
-15.674010       512.55
-15.604271       807.20
-15.534557       836.80
-15.464867       814.30
-15.395201       796.35
-15.325561      1363.30
-15.255944      1497.10
-15.186353      1429.90
-15.116785      1610.50
-15.047243      1533.60
-14.977725      1438.75
-14.908231       238.30
-14.838762       797.95
-14.769318       299.50
-14.699898       517.65
-14.630503      1208.75
-14.561132      1678.50
-14.491785      1286.15
-14.422464       668.35
-14.353166       556.40
-14.283894      1970.15
-14.214646      1038.60
-14.145422      1554.60
-14.076223      1733.30
-14.007049      1506.45
-13.937899       -49.30
-13.868773       741.80
-13.799672      1250.90
-13.730596      1693.95
-13.661544      1985.65
-13.592517      1687.95
-13.523514       659.45
-13.454536       790.90
-13.385583       874.20
-13.316653      1025.05
-13.247749       807.30
-13.178869      1234.80
-13.110013      1237.10
-13.041183       833.95
-12.972376       564.05
-12.903594      1628.40
-12.834837       505.95
-12.766104       393.05
-12.697396      1672.15
-12.628712      1862.40
-12.560053       539.45
-12.491419      1122.00
-12.422809       441.25
-12.354223      1539.55
-12.285662      1949.40
-12.217126      1445.75
-12.148614       807.85
-12.080127      1333.40
-12.011664      1480.40
-11.943225      2001.85
-11.874812       442.35
-11.806423       402.45
-11.738058       924.70
-11.669718       996.85
-11.601402       815.30
-11.533111      2040.15
-11.464845      1313.95
-11.396603       935.45
-11.328386       938.05
-11.260193      1536.35
-11.192024       778.40
-11.123881       843.85
-11.055761       775.15
-10.987667      1233.05
-10.919597       925.00
-10.851551      2031.55
-10.783530      1658.60
-10.715533      1158.30
-10.647562      1009.90
-10.579614       986.90
-10.511691      1550.35
-10.443793      2236.00
-10.375919      2099.50
-10.308070      1257.55
-10.240245      1721.25
-10.172445      1573.35
-10.104669      1996.40
-10.036918      1961.90
-9.969192       1825.75
-9.901490       2656.25
-9.833812       2358.25
-9.766159       1701.60
-9.698531       1946.55
-9.630927       1915.80
-9.563348       1886.05
-9.495793       1745.75
-9.428263       1342.10
-9.360757       1914.50
-9.293276       2215.95
-9.225819       3132.85
-9.158387       2344.75
-9.090980        967.35
-9.023597       1219.65
-8.956238       1476.60
-8.888904       1636.75
-8.821595       1995.45
-8.754310       1306.15
-8.687050        504.75
-8.619814       1623.15
-8.552603       1793.15
-8.485416       1214.75
-8.418254       1223.55
-8.351117       1704.95
-8.284004       1876.95
-8.216915       1662.90
-8.149851       1486.00
-8.082812       2013.65
-8.015797       2262.20
-7.948807       1997.50
-7.881841       2055.70
-7.814900       1939.05
-7.747983       1666.65
-7.681091       1051.90
-7.614223       1567.10
-7.547380       1539.00
-7.480562       1942.65
-7.413768       1107.50
-7.346998        570.80
-7.280253       1760.35
-7.213533       2062.30
-7.146837       1886.95
-7.080166       1561.40
-7.013519       2162.60
-6.946897       1935.05
-6.880299       1754.10
-6.813726       1794.45
-6.747177       1853.90
-6.680653       2246.55
-6.614154       2479.45
-6.547679       2470.05
-6.481229       1761.75
-6.414803       2283.90
-6.348401       2755.65
-6.282025       1985.75
-6.215672       1900.90
-6.149345       1898.60
-6.083041       2841.05
-6.016763       2460.05
-5.950509       1984.35
-5.884279       2475.80
-5.818074       1864.20
-5.751894        983.10
-5.685738       2593.05
-5.619607       2401.00
-5.553500       1657.20
-5.487417       1343.40
-5.421360       1966.45
-5.355326       2174.55
-5.289318       1913.20
-5.223334       1254.45
-5.157374       2267.25
-5.091439       2441.50
-5.025529       1702.50
-4.959643       2285.60
-4.893781       1692.05
-4.827944       2066.00
-4.762132       1309.45
-4.696344       1409.95
-4.630581       1899.95
-4.564842       2608.35
-4.499128       1872.05
-4.433438       1471.55
-4.367773       1111.40
-4.302133       2557.20
-4.236517       2465.95
-4.170925       2013.20
-4.105358       1816.15
-4.039816       2421.15
-3.974298       1843.50
-3.908805       1614.30
-3.843336       1201.60
-3.777892        894.90
-3.712472       1858.70
-3.647077       2685.55
-3.581706       2241.05
-3.516360       1397.65
-3.451039       1156.75
-3.385742       1718.65
-3.320470       2132.10
-3.255222       2797.00
-3.189998       2018.25
-3.124799       2121.85
-3.059625       2530.85
-2.994476       1464.00
-2.929350        755.35
-2.864250       2129.55
-2.799174       2501.70
-2.734122       2161.50
-2.669095       1934.00
-2.604093       2985.85
-2.539115       2024.00
-2.474161       2400.55
-2.409232       2732.70
-2.344328       2690.30
-2.279448       2267.45
-2.214593       2795.55
-2.149762       2718.30
-2.084956       2124.50
-2.020175       2095.25
-1.955418       2836.25
-1.890685       2641.20
-1.825977       2729.85
-1.761294       2422.05
-1.696635       2185.05
-1.632000       1536.25
-1.567391       1907.35
-1.502805       2112.55
-1.438245       2505.60
-1.373708       2962.65
-1.309197       2819.80
-1.244710       3012.15
-1.180247       3434.85
-1.115809       3285.45
-1.051396       2943.85
-0.987007       2473.75
-0.922642       2340.45
-0.858302       2166.15
-0.793987       3220.25
-0.729696       3536.65
-0.665430       4247.25
-0.601188       3822.05
-0.536971       4047.55
-0.472779       4628.30
-0.408611       5791.75
-0.344467       6447.40
-0.280348       5905.20
-0.216254       6798.55
-0.152184       9369.55
-0.088138      11329.25
-0.024118      12181.70
 0.039879      14596.60
 0.103850      16720.70
 0.167798      17684.35
 0.231720      18330.05
 0.295618      20146.10
 0.359492      18776.85
 0.423341      20571.45
 0.487165      22413.70
 0.550965      26131.05
 0.614741      31800.15
 0.678492      38357.90
 0.742218      45358.40
 0.805920      53741.05
 0.869597      63389.55
 0.933250      73571.65
 0.996878      82206.85
 1.060482      88734.15
 1.124061      93210.65
 1.187615     100096.65
 1.251145     104108.25
 1.314651     106096.75
 1.378131     107914.05
 1.441588     106621.45
 1.505020     107525.20
 1.568427     112237.50
 1.631810     116413.45
 1.695168     122247.05
 1.758502     127427.25
 1.821811     129964.75
 1.885095     135431.60
 1.948355     138628.55
 2.011591     138884.95
 2.074802     139825.30
 2.137988     142202.30
 2.201150     138687.45
 2.264287     138249.40
 2.327400     137496.90
 2.390488     137250.60
 2.453552     138789.05
 2.516591     133179.00
 2.579606     129590.95
 2.642596     133500.70
 2.705562     137310.70
 2.768503     133975.10
 2.831419     133338.75
 2.894311     138210.45
 2.957178     137803.45
 3.020021     142498.50
 3.082839     146084.60
 3.145633     150136.30
 3.208402     149699.35
 3.271147     154737.70
 3.333867     163613.15
 3.396563     166719.15
 3.459234     171047.35
 3.521880     177735.70
 3.584502     181887.80
 3.647100     185073.20
 3.709673     187675.50
 3.772221     188137.85
 3.834745     187416.35
 3.897244     182233.75
 3.959719     180924.70
 4.022169     180864.25
 4.084595     179095.60
 4.146996     175321.80
 4.209372     171564.35
 4.271724     169780.50
 4.334052     167371.85
 4.396355     167941.50
 4.458633     160634.15
 4.520887     156109.90
 4.583116     149459.60
 4.645321     144587.85
 4.707501     144819.85
 4.769657     141754.45
 4.831788     140267.65
 4.893895     137736.35
 4.955977     133560.95
 5.018034     132318.90
 5.080067     130112.95
 5.142076     127996.75
 5.204059     127802.75
 5.266019     123297.50
 5.327954     121382.10
 5.389864     121928.15
 5.451750     116333.10
 5.513611     113844.30
 5.575447     115964.75
 5.637260     115067.40
 5.699047     112886.95
 5.760810     112451.00
 5.822549     109604.20
 5.884263     109647.05
 5.945952     105071.40
 6.007617     100514.45
 6.069257      99631.50
 6.130873      99581.60
 6.192464      96932.55
 6.254031      96542.30
 6.315573      96384.35
 6.377091      93102.05
 6.438584      87471.45
 6.500052      83419.20
 6.561496      82987.80
 6.622916      83185.15
 6.684310      82579.55
 6.745681      79859.70
 6.807027      75865.15
 6.868348      75076.15
 6.929645      73591.25
 6.990917      70924.90
 7.052164      73300.10
 7.113388      72761.25
 7.174586      71454.60
 7.235760      69097.65
 7.296910      67493.50
 7.358035      67654.95
 7.419135      64635.80
 7.480211      62218.90
 7.541262      59719.55
 7.602289      61259.30
 7.663291      61426.90
 7.724269      59465.15
 7.785222      55234.05
 7.846151      53404.00
 7.907055      52244.90
 7.967934      51559.15
 8.028789      51455.90
 8.089620      52137.85
 8.150426      50117.25
 8.211207      47504.60
 8.271964      46253.70
 8.332696      46612.70
 8.393404      44369.00
 8.454087      43919.05
 8.514746      43941.85
 8.575380      42395.00
 8.635989      40421.10
 8.696574      41125.00
 8.757135      40112.45
 8.817671      38563.00
 8.878182      37611.65
 8.938669      36273.10
 8.999131      33391.50
 9.059569      32240.50
 9.119983      32741.55
 9.180371      32661.70
 9.240735      33414.20
 9.301075      33600.30
 9.361390      30168.00
 9.421681      29885.45
 9.481947      31106.35
 9.542188      30855.35
 9.602405      29170.20
 9.662597      27636.85
 9.722765      27160.15
 9.782909      26171.35
 9.843027      26492.35
 9.903121      26333.80
 9.963191      24331.60
 10.023236     23545.00
 10.083257     23731.95
 10.143253     23344.95
 10.203224     22600.10
 10.263171     23178.95
 10.323094     22392.45
 10.382992     22401.15
 10.442865     23285.10
 10.502714     23214.30
 10.562538     22649.05
 10.622338     23038.30
 10.682113     22095.20
 10.741864     21962.20
 10.801590     21776.25
 10.861291     23247.85
 10.920968     23013.90
 10.980621     21294.10
 11.040249     20879.80
 11.099852     21374.90
 11.159431     20633.80
 11.218985     21283.40
 11.278515     21333.95
 11.338020     18869.00
 11.397501     17783.15
 11.456957     19050.20
 11.516389     18526.70
 11.575796     18159.60
 11.635178     17473.70
 11.694536     16696.60
 11.753870     17862.20
 11.813178     17008.30
 11.872463     17185.95
 11.931723     17783.85
 11.990958     17874.35
 12.050169     19218.05
 12.109355     18416.95
 12.168516     18076.00
 12.227653     18112.50
 12.286766     17263.60
 12.345854     16883.50
 12.404918     16401.20
 12.463956     16607.00
 12.522971     17691.80
 12.581961     16655.10
 12.640926     15797.00
 12.699867     16424.80
 12.758783     16957.70
 12.817675     17607.90
 12.876542     16089.50
 12.935384     13949.30
 12.994203     15173.60
 13.052996     17000.55
 13.111765     16256.45
 13.170509     15934.85
 13.229229     15395.70
 13.287925     15725.80
 13.346596     16036.90
 13.405242     16025.40
 13.463864     15945.55
 13.522461     16071.50
 13.581033     15418.75
 13.639581     16615.05
 13.698105     17223.60
 13.756604     16375.00
 13.815079     16173.95
 13.873528     16161.95
 13.931954     16166.20
 13.990355     16147.95
 14.048731     14637.75
 14.107083     13438.05
 14.165410     14988.00
 14.223713     15495.45
 14.281991     15657.45
 14.340245     16467.10
 14.398474     16680.90
 14.456678     17564.35
 14.514858     16928.25
 14.573014     15616.05
 14.631144     14851.80
 14.689251     14076.70
 14.747333     14656.15
 14.805390     15557.90
 14.863423     15017.60
 14.921431     17075.55
 14.979415     17467.30
 15.037374     17427.30
 15.095308     18053.10
 15.153218     17761.15
 15.211104     17978.00
 15.268965     17938.35
 15.326801     16431.15
 15.384613     16235.55
 15.442400     16809.35
 15.500163     17624.15
 15.557901     17179.85
 15.615615     17148.20
 15.673304     17426.00
 15.730969     17378.55
 15.788609     17371.95
 15.846224     18118.45
 15.903815     18649.95
 15.961382     19350.50
 16.018924     20376.35
 16.076441     20982.80
 16.133934     20745.10
 16.191402     20850.35
 16.248846     20544.95
 16.306265     22415.70
 16.363660     22471.90
 16.421030     21272.15
 16.478376     21214.30
 16.535697     23121.35
 16.592993     22556.35
 16.650265     22855.25
 16.707513     24097.45
 16.764735     23328.25
 16.821934     23444.85
 16.879108     24906.30
 16.936257     26937.65
 16.993382     26847.35
 17.050482     26199.65
 17.107557     27914.50
 17.164608     29085.80
 17.221635     30223.05
 17.278637     29940.60
 17.335614     30339.10
 17.392567     30139.65
 17.449496     30452.30
 17.506400     33331.30
 17.563279     36724.85
 17.620134     37710.70
 17.676964     38002.40
 17.733770     38038.15
 17.790551     40497.85
 17.847307     43137.85
 17.904039     44457.65
 17.960747     45939.00
 18.017430     47717.30
 18.074088     47900.45
 18.130722     46135.05
 18.187331     46555.95
 18.243916     50762.85
 18.300477     53836.70
 18.357012     56164.25
 18.413523     58353.65
 18.470010     60344.75
 18.526472     60778.20
 18.582910     64326.65
 18.639323     66290.75
 18.695711     67265.85
 18.752075     69611.70
 18.808415     72412.95
 18.864729     74812.75
 18.921020     79857.45
 18.977285     84166.80
 19.033527     86937.90
 19.089743     89234.55
 19.145936     91164.60
 19.202103     97013.75
 19.258246    100262.30
 19.314365    103200.80
 19.370459    109738.40
 19.426528    114831.85
 19.482573    121105.30
 19.538593    126642.10
 19.594589    134584.40
 19.650560    144359.90
 19.706507    146630.65
 19.762429    155050.55
 19.818327    168063.05
 19.874200    174974.85
 19.930049    181196.75
 19.985873    195128.40
 20.041672    207982.90
 20.097447    214885.90
 20.153198    225743.05
 20.208923    235676.55
 20.264625    248013.65
 20.320301    263128.00
 20.375954    272568.80
 20.431581    285240.50
 20.487185    298065.00
 20.542763    314530.30
 20.598317    326514.65
 20.653847    338994.60
 20.709352    348122.05
 20.764832    346309.10
 20.820288    346859.80
 20.875719    355308.80
 20.931126    357794.10
 20.986509    355712.95
 21.041866    347964.30
 21.097199    331338.20
 21.152508    309116.35
 21.207792    299291.10
 21.263052    282113.65
 21.318287    257666.85
 21.373497    243309.25
 21.428683    227718.15
 21.483845    204676.15
 21.538982    189365.15
 21.594094    172899.10
 21.649182    160801.45
 21.704245    151441.25
 21.759284    140431.40
 21.814298    130115.85
 21.869287    119427.70
 21.924252    109006.40
 21.979193    102954.80
 22.034109     99409.30
 22.089000     96605.90
 22.143867     90044.30
 22.198710     84567.15
 22.253528     79876.40
 22.308321     76876.50
 22.363090     72006.95
 22.417834     69838.50
 22.472553     68948.95
 22.527249     66565.55
 22.581919     66213.10
 22.636565     65221.50
 22.691187     67913.70
 22.745784     67395.40
 22.800356     68444.00
 22.854904     71336.60
 22.909427     71003.00
 22.963926     75316.95
 23.018400     77535.20
 23.072850     79169.55
 23.127275     81330.40
 23.181676     85334.50
 23.236052     90494.80
 23.290403     93077.85
 23.344730     93331.95
 23.399033     94603.05
 23.453311     97692.55
 23.507564    100720.00
 23.561793    103106.35
 23.615997    105930.95
 23.670177    109176.05
 23.724332    110179.95
 23.778463    111442.50
 23.832569    109892.45
 23.886651    110806.55
 23.940708    111876.70
 23.994740    116268.20
 24.048748    117410.50
 24.102732    117698.90
 24.156691    118352.50
 24.210625    120269.35
 24.264535    118334.60
 24.318420    116592.95
 24.372281    117062.55
 24.426117    116214.65
 24.479929    115989.25
 24.533716    113208.35
 24.587478    112887.10
 24.641216    117561.20
 24.694930    118427.00
 24.748619    117625.20
 24.802283    114154.20
 24.855923    113814.70
 24.909538    113050.20
 24.963129    111572.95
 25.016695    106287.30
 25.070237    103719.70
 25.123754    103535.75
 25.177247    104667.55
 25.230715    101826.40
 25.284158    100512.80
 25.337577     97261.75
 25.390972     95266.00
 25.444341     94608.40
 25.497687     94844.10
 25.551008     92183.00
 25.604304     88912.25
 25.657576     85079.05
 25.710823     83643.50
 25.764045     81946.40
 25.817244     80910.15
 25.870417     81937.25
 25.923566     81507.35
 25.976691     80621.25
 26.029791     78260.45
 26.082866     75130.75
 26.135917     72538.60
 26.188943     68565.05
 26.241945     67912.00
 26.294922     69179.95
 26.347875     67865.30
 26.400803     65154.05
 26.453707     65611.45
 26.506586     64582.70
 26.559440     62980.55
 26.612270     62861.20
 26.665076     60759.75
 26.717856     58216.45
 26.770613     58503.10
 26.823345     56062.55
 26.876052     53885.80
 26.928735     54583.50
 26.981393     54201.35
 27.034026     53291.75
 27.086636     51497.60
 27.139220     51547.95
 27.191780     49616.05
 27.244316     48320.55
 27.296827     47211.15
 27.349313     48798.75
 27.401775     48410.25
 27.454212     47996.00
 27.506625     45444.65
 27.559013     43816.35
 27.611377     42353.00
 27.663716     39596.75
 27.716031     40298.80
 27.768321     42523.80
 27.820586     42861.35
 27.872827     40180.20
 27.925044     38977.90
 27.977236     40113.75
 28.029403     41931.65
 28.081546     39145.60
 28.133664     36912.15
 28.185758     34689.40
 28.237827     34553.80
 28.289872     34709.75
 28.341892     33879.45
 28.393887     35365.20
 28.445858     36078.80
 28.497805     33507.40
 28.549727     33129.05
 28.601624     33701.30
 28.653497     32389.35
 28.705346     31620.80
 28.757169     31272.05
 28.808969     32276.15
 28.860743     30676.65
 28.912493     30015.75
 28.964219     31474.60
 29.015920     31964.60
 29.067597     30980.40
 29.119249     28157.45
 29.170876     27403.25
 29.222479     26687.70
 29.274057     26643.15
 29.325611     26594.25
 29.377141     26401.70
 29.428645     25373.85
 29.480126     25756.80
 29.531581     25101.50
 29.583012     26215.00
 29.634419     25007.90
 29.685801     23378.35
 29.737159     23622.05
 29.788491     24348.35
 29.839800     23455.25
 29.891084     23125.95
 29.942343     21866.10
 29.993578     22095.20
 30.044788     22571.45
 30.095974     23118.70
 30.147135     22706.15
 30.198272     21324.35
 30.249384     20685.75
 30.300471     20298.70
 30.351534     19012.75
 30.402573     18967.10
 30.453587     19182.90
 30.504576     19142.55
 30.555541     18326.30
 30.606481     17286.00
 30.657397     18216.65
 30.708288     18889.90
 30.759155     17845.90
 30.809997     17198.05
 30.860815     17730.75
 30.911608     18501.65
 30.962376     17294.00
 31.013120     17124.05
 31.063840     15639.00
 31.114535     15511.00
 31.165205     15044.25
 31.215851     15734.20
 31.266472     17036.80
 31.317069     15889.80
 31.367641     14827.90
 31.418189     16714.50
 31.468712     16897.65
 31.519210     16349.35
 31.569684     14846.55
 31.620134     13965.20
 31.670559     13692.05
 31.720959     14263.40
 31.771335     15279.95
 31.821686     16146.15
 31.872013     14450.95
 31.922315     14314.50
 31.972593     14318.45
 32.022846     14740.05
 32.073075     14578.25
 32.123279     13579.80
 32.173458     14000.25
 32.223613     13337.00
 32.273744     13381.35
 32.323850     11976.80
 32.373931     12394.50
 32.423988     13626.00
 32.474020     13546.70
 32.524028     13918.55
 32.574011     13605.35
 32.623970     12297.20
 32.673904     12870.55
 32.723813     13394.30
 32.773698     12807.90
 32.823559     12055.30
 32.873395     12704.50
 32.923206     12317.30
 32.972993     11892.30
 33.022755     13197.65
 33.072493     14301.60
 33.122206     13429.00
 33.171895     12624.70
 33.221559     12652.70
 33.271199     11641.25
 33.320814     11846.20
 33.370404     13088.35
 33.419970     13123.60
 33.469512     12287.15
 33.519029     12369.85
 33.568521     13468.85
 33.617989     14175.80
 33.667432     13647.50
 33.716851     12180.70
 33.766245     12088.75
 33.815615     12905.85
 33.864960     13407.85
 33.914280     12578.00
 33.963577     11793.35
 34.012848     12275.65
 34.062095     13830.75
 34.111317     12408.60
 34.160515     11353.70
 34.209689     11673.80
 34.258837     13186.95
 34.307962     12978.90
 34.357061     12266.45
 34.406136     12299.15
 34.455187     11320.45
 34.504213     11361.85
 34.553215     11585.00
 34.602192     11857.90
 34.651144     11468.60
 34.700072     11303.95
 34.748975      9981.30
 34.797854      9427.20
 34.846709      9551.60
 34.895538      8695.15
 34.944344      9926.40
 34.993124     10842.20
 35.041880      9521.25
 35.090612     10195.55
 35.139319     11461.40
 35.188001     12941.85
 35.236659     10834.00
 35.285293     10279.40
 35.333902     10867.65
 35.382486     11309.80
 35.431046     12219.95
 35.479581     12239.50
 35.528092     12429.05
 35.576578     12486.80
 35.625040     11234.40
 35.673477     10379.55
 35.721889     11273.00
 35.770277     11605.15
 35.818641     12211.95
 35.866980     12027.90
 35.915294     11789.85
 35.963584     11957.40
 36.011849     11726.20
 36.060090     11767.65
 36.108306     11411.80
 36.156498     10905.60
 36.204665      9859.55
 36.252808     10392.85
 36.300926     11531.20
 36.349019     10818.45
 36.397088      9651.85
 36.445133     10115.00
 36.493152     11736.60
 36.541148     11048.70
 36.589119     11690.30
 36.637065     11819.25
 36.684987     11609.50
 36.732884     11731.65
 36.780756     10706.20
 36.828604     10711.95
 36.876428     11827.75
 36.924227     10421.25
 36.972002     10384.00
 37.019751     11402.55
 37.067477     11966.55
 37.115178     11126.70
 37.162854     10648.55
 37.210506     12462.70
 37.258133     13339.20
 37.305736     11565.70
 37.353314     11206.85
 37.400867     11851.00
 37.448397     13566.70
 37.495901     14222.75
 37.543381     12386.20
 37.590836     12657.75
 37.638267     13392.60
 37.685674     12770.80
 37.733056     12561.20
 37.780413     13363.60
 37.827746     13107.75
 37.875054     14332.00
 37.922337     14359.05
 37.969596     14767.40
 38.016831     15820.20
 38.064041     15230.55
 38.111227     15553.20
 38.158387     16776.70
 38.205524     17311.65
 38.252636     17030.75
 38.299723     16858.90
 38.346786     16864.65
 38.393824     17164.90
 38.440838     16802.15
 38.487827     16685.00
 38.534792     16458.60
 38.581732     17957.70
 38.628647     19064.35
 38.675538     19428.50
 38.722405     19150.55
 38.769246     17495.20
 38.816064     17692.50
 38.862857     16527.20
 38.909625     15617.55
 38.956369     14969.05
 39.003088     15571.05
 39.049783     15403.20
 39.096453     14932.55
 39.143098     14884.75
 39.189719     16437.40
 39.236316     17030.65
 39.282888     15718.55
 39.329435     16296.95
 39.375958     16108.60
 39.422456     15482.55
 39.468930     16137.35
 39.515379     15343.80
 39.561804     15221.65
 39.608204     14215.85
 39.654580     13735.50
 39.700931     14505.75
 39.747257     14676.00
 39.793559     14472.05
 39.839837     14218.25
 39.886090     12268.95
 39.932318     12946.00
 39.978522     13819.95
 40.024701     14352.45
 40.070856     13697.25
 40.116986     13440.85
 40.163092     13224.55
 40.209173     13961.05
 40.255230     14549.80
 40.301262     14515.35
 40.347269     14599.55
 40.393252     14029.00
 40.439211     13544.60
 40.485144     13709.45
 40.531054     14880.50
 40.576939     15567.90
 40.622799     14539.35
 40.668635     13118.10
 40.714446     13575.50
 40.760232     14095.95
 40.805994     14466.45
 40.851732     16214.35
 40.897445     16833.50
 40.943133     16338.15
 40.988797     17026.20
 41.034437     16088.00
 41.080052     16508.90
 41.125642     15747.50
 41.171208     14844.65
 41.216749     15760.70
 41.262266     17290.35
 41.307758     17589.85
 41.353225     15898.20
 41.398668     14837.60
 41.444087     16272.20
 41.489481     14801.50
 41.534850     15073.95
 41.580195     14613.75
 41.625515     15730.40
 41.670811     15236.70
 41.716082     15107.40
 41.761329     15479.70
 41.806551     15572.45
 41.851749     15110.15
 41.896922     14117.15
 41.942071     13937.70
 41.987195     14333.30
 42.032294     14316.55
 42.077369     14884.10
 42.122419     15811.10
 42.167445     16765.90
 42.212447     14650.60
 42.257423     13943.80
 42.302376     14106.35
 42.347303     13919.25
 42.392206     14191.00
 42.437085     16342.60
 42.481939     15732.45
 42.526769     16776.65
 42.571574     15472.25
 42.616354     16030.00
 42.661110     14552.20
 42.705841     14223.95
 42.750548     13160.40
 42.795230     13812.30
 42.839888     13179.25
 42.884521     12776.20
 42.929130     13051.45
 42.973714     12654.25
 43.018274     11986.60
 43.062809     14112.40
 43.107319     13655.15
 43.151805     14389.15
 43.196266     14540.70
 43.240703     13970.60
 43.285116     13828.75
 43.329503     14072.10
 43.373867     13609.45
 43.418205     13440.65
 43.462519     13618.55
 43.506809     13797.00
 43.551074     12659.90
 43.595315     11551.65
 43.639531     10955.75
 43.683722     12144.90
 43.727889     12372.25
 43.772031     12755.40
 43.816149     12507.20
 43.860242     13086.05
 43.904311     14085.85
 43.948355     13132.45
 43.992375     13554.80
 44.036370     14101.25
 44.080341     14104.45
 44.124287     13593.35
 44.168208     13628.50
 44.212105     12401.25
 44.255978     13147.25
 44.299825     14072.10
 44.343649     13701.80
 44.387448     13625.60
 44.431222     14616.15
 44.474972     15828.90
 44.518697     15765.15
 44.562397     16163.95
 44.606073     15881.50
 44.649725     15581.70
 44.693352     16177.20
 44.736954     16654.85
 44.780532     16402.85
 44.824086     16172.75
 44.867614     15052.10
 44.911119     14894.60
 44.954598     14544.85
 44.998054     14667.05
 45.041484     15009.35
 45.084890     15038.50
 45.128272     15373.95
 45.171629     15579.75
 45.214962     16384.00
 45.258270     14769.15
 45.301553     14312.20
 45.344812     14896.95
 45.388046     15612.75
 45.431256     15804.40
 45.474441     15823.20
 45.517602     15292.50
 45.560738     15274.10
 45.603850     16290.20
 45.646937     16792.00
 45.689999     15803.75
 45.733037     15252.85
 45.776051     15648.95
 45.819040     15795.80
 45.862004     15507.85
 45.904944     14638.95
 45.947859     13547.90
 45.990750     15058.05
 46.033616     14619.75
 46.076458     13869.70
 46.119275     13397.55
 46.162068     13933.00
 46.204836     14191.25
 46.247579     13799.65
 46.290298     14035.75
 46.332993     14594.75
 46.375662     14548.15
 46.418308     14443.90
 46.460929     14591.50
 46.503525     14294.80
 46.546097     14332.30
 46.588644     15238.80
 46.631166     13814.50
 46.673664     13949.35
 46.716138     13002.55
 46.758587     12464.45
 46.801011     13417.60
 46.843411     13059.50
 46.885787     13530.85
 46.928138     13642.25
 46.970464     12187.80
 47.012766     11704.90
 47.055043     12539.80
 47.097296     11804.30
 47.139524     11568.05
 47.181727     10993.50
 47.223906     11219.00
 47.266061     11123.05
 47.308191     11174.40
 47.350296     11139.40
 47.392377     11150.20
 47.434434     10240.05
 47.476465      9360.60
 47.518473      9408.75
 47.560455      9120.45
 47.602414      9542.95
 47.644347      8462.85
 47.686256      7526.75
 47.728141      8640.45
 47.770001      8986.65
 47.811836      8521.50
 47.853647      8242.65
 47.895434      8635.95
 47.937196      7718.90
 47.978933      8144.85
 48.020646      7733.00
 48.062334      7679.95
 48.103998      8264.55
 48.145637      8280.05
 48.187251      8128.05
 48.228841      8276.90
 48.270407      7875.25
 48.311948      7664.45
 48.353464      6799.60
 48.394956      6559.00
 48.436424      7189.45
 48.477866      7378.70
 48.519285      7020.15
 48.560678      7030.30
 48.602048      6907.40
 48.643392      7986.15
 48.684712      7657.80
 48.726008      8291.00
 48.767279      7052.90
 48.808525      7734.10
 48.849747      8818.65
 48.890945      7758.90
 48.932118      7592.20
 48.973266      7278.80
 49.014390      6817.55
 49.055489      6524.85
 49.096564      6787.65
 49.137614      8197.85
 49.178639      7949.15
 49.219641      8878.60
 49.260617      9195.60
 49.301569      7921.00
 49.342497      7295.80
 49.383399      6917.10
 49.424278      7158.20
 49.465132      8154.60
 49.505961      8878.10
 49.546766      9269.70
 49.587546      8635.70
 49.628302      8054.10
 49.669033      8153.20
 49.709739      7736.30
 49.750421      7166.35
 49.791079      7137.95
 49.831712      7706.00
 49.872320      8938.20
 49.912904      7466.35
 49.953463      7759.00
 49.993998      7328.55
 50.034508      6860.60
 50.074994      8225.85
 50.115455      8246.85
 50.155892      8478.45
 50.196304      8160.75
 50.236691      7675.20
 50.277054      8145.90
 50.317393      7541.35
 50.357707      7376.95
 50.397996      7524.25
 50.438261      8469.55
 50.478501      7715.70
 50.518717      8258.50
 50.558908      8564.10
 50.599075      8667.05
 50.639217      8897.85
 50.679335      8712.05
 50.719428      8039.90
 50.759496      8138.05
 50.799540      8488.15
 50.839560      8499.30
 50.879555      8027.75
 50.919525      8628.60
 50.959471      8152.40
 50.999392      8810.75
 51.039289      9153.35
 51.079161      9496.80
 51.119008      7981.60
 51.158832      7583.85
 51.198630      7173.25
 51.238404      8041.55
 51.278154      7679.20
 51.317879      8343.80
 51.357579      8143.45
 51.397255      8848.20
 51.436906      9023.35
 51.476533      9459.10
 51.516135      8831.15
 51.555713      8631.15
 51.595266      8267.60
 51.634794      8101.65
 51.674298      8334.50
 51.713778      8772.45
 51.753233      8342.20
 51.792663      7983.35
 51.832069      7523.15
 51.871451      7457.10
 51.910807      8778.85
 51.950140      8580.05
 51.989447      8319.40
 52.028731      7751.25
 52.067989      8065.90
 52.107223      7377.65
 52.146433      7579.70
 52.185618      6947.25
 52.224778      6943.55
 52.263914      6216.80
 52.303026      6223.95
 52.342113      6802.70
 52.381175      6853.60
 52.420213      7553.20
 52.459226      8802.30
 52.498215      7554.55
 52.537179      8156.30
 52.576118      8432.60
 52.615033      8574.80
 52.653924      8599.00
 52.692790      8734.80
 52.731631      7618.95
 52.770448      7166.70
 52.809241      8187.05
 52.848008      8381.85
 52.886752      7629.25
 52.925470      6742.00
 52.964165      7117.45
 53.002834      8527.90
 53.041479      8811.00
 53.080100      7834.90
 53.118696      7977.90
 53.157267      7736.40
 53.195814      7799.10
 53.234337      7869.85
 53.272835      7858.80
 53.311308      8463.55
 53.349757      8578.90
 53.388181      8281.00
 53.426581      6695.30
 53.464956      7426.40
 53.503306      7739.60
 53.541633      6908.85
 53.579934      6603.70
 53.618211      6907.90
 53.656463      6690.10
 53.694691      6758.85
 53.732895      7273.30
 53.771074      7572.05
 53.809228      6567.15
 53.847358      5981.85
 53.885463      7342.25
 53.923543      7850.00
 53.961600      7619.55
 53.999631      7151.65
 54.037638      7570.35
 54.075621      8028.00
 54.113579      6969.45
 54.151512      6513.65
 54.189421      7156.25
 54.227305      8536.85
 54.265165      7107.20
 54.303000      5810.00
 54.340811      7096.55
 54.378597      7549.60
 54.416359      7303.40
 54.454096      7894.40
 54.491808      8646.40
 54.529496      7747.70
 54.567160      7282.35
 54.604799      8225.50
 54.642413      8698.25
 54.680003      7841.15
 54.717568      8376.45
 54.755109      8758.45
 54.792625      9429.60
 54.830117      8963.15
 54.867584      8214.30
 54.905027      7218.35
 54.942445      6913.20
 54.979838      6711.40
 55.017207      7473.75
 55.054552      6998.40
 55.091871      6190.65
 55.129167      5653.05
 55.166438      6448.15
 55.203684      6834.70
 55.240905      8082.80
 55.278103      8247.35
 55.315275      7628.00
 55.352423      7040.00
 55.389547      7199.45
 55.426646      6305.20
 55.463720      7299.15
 55.500770      7547.50
 55.537796      6584.95
 55.574797      6310.00
 55.611773      6433.05
 55.648725      7246.30
 55.685652      6870.50
 55.722555      7065.00
 55.759433      6534.75
 55.796286      6334.10
 55.833115      6801.25
 55.869920      6922.20
 55.906700      8591.35
 55.943455      7201.85
 55.980186      6092.80
 56.016892      6024.70
 56.053574      6356.20
 56.090231      6463.90
 56.126864      6022.25
 56.163472      6965.05
 56.200056      7329.40
 56.236615      7209.95
 56.273150      6178.85
 56.309660      5839.95
 56.346145      5368.70
 56.382606      5553.35
 56.419042      5223.85
 56.455454      4758.65
 56.491842      5464.25
 56.528204      6501.00
 56.564543      6505.75
 56.600856      6130.60
 56.637145      6174.70
 56.673410      5743.25
 56.709650      5937.90
 56.745866      6660.85
 56.782057      5811.80
 56.818223      6544.15
 56.854365      5729.00
 56.890482      5065.40
 56.926575      4439.75
 56.962643      5172.70
 56.998687      6625.75
 57.034706      6782.25
 57.070701      6441.15
 57.106671      5465.05
 57.142617      5417.40
 57.178538      6550.05
 57.214434      7502.65
 57.250306      7443.30
 57.286153      6596.70
 57.321976      6870.30
 57.357775      7466.30
 57.393548      7478.90
 57.429298      6458.70
 57.465022      5687.80
 57.500723      5986.90
 57.536398      6971.65
 57.572049      6415.40
 57.607676      5985.45
 57.643278      7133.55
 57.678855      6967.45
 57.714408      6963.25
 57.749936      8123.90
 57.785440      6067.20
 57.820920      6182.90
 57.856374      6341.50
 57.891804      7080.45
 57.927210      7564.50
 57.962591      7525.15
 57.997948      6315.70
 58.033280      6434.95
 58.068587      7948.85
 58.103870      6760.95
 58.139129      6446.70
 58.174363      7115.90
 58.209572      7083.70
 58.244757      6897.80
 58.279917      6943.25
 58.315053      6893.20
 58.350164      7518.70
 58.385250      7604.70
 58.420312      8274.10
 58.455350      8069.05
 58.490363      8038.35
 58.525351      8001.00
 58.560315      8027.60
 58.595255      8872.00
 58.630170      8755.55
 58.665060      8286.30
 58.699926      8964.15
 58.734767      9297.10
 58.769583      9092.60
 58.804376      8777.70
 58.839143      9692.40
 58.873886      9957.00
 58.908605     10889.90
 58.943299     10842.90
 58.977968     10499.50
 59.012613     10680.40
 59.047233     10376.45
 59.081829      9777.20
 59.116400      9613.75
 59.150947      9794.75
 59.185469      9670.60
 59.219967     10798.95
 59.254440     12653.80
 59.288889     12771.00
 59.323313     12174.70
 59.357712     11721.85
 59.392087     12984.00
 59.426437     13460.45
 59.460763     13626.60
 59.495064     13411.45
 59.529341     12047.40
 59.563593     11772.20
 59.597821     13394.35
 59.632024     14324.20
 59.666203     13762.05
 59.700357     12475.95
 59.734486     11790.55
 59.768591     12168.65
 59.802672     12856.85
 59.836728     13447.10
 59.870759     12612.35
 59.904766     11546.35
 59.938748     12220.75
 59.972706     12511.70
 60.006639     11505.55
 60.040548     11294.30
 60.074432     12004.05
 60.108291     12563.95
 60.142126     12360.70
 60.175937     10903.00
 60.209723      9985.95
 60.243484     10319.60
 60.277221      9783.80
 60.310933     10062.50
 60.344621     10438.15
 60.378284     10566.30
 60.411923     10919.50
 60.445537     10168.15
 60.479127     10237.10
 60.512692      8901.00
 60.546232      8216.80
 60.579748      9503.45
 60.613240      9469.10
 60.646706      8775.95
 60.680149      8638.80
 60.713567      8162.25
 60.746960      8121.95
 60.780329      8681.00
 60.813673      8001.10
 60.846992      7662.80
 60.880288      6038.25
 60.913558      6602.50
 60.946804      7380.70
 60.980026      6983.65
 61.013223      7020.30
 61.046395      7694.25
 61.079543      6573.55
 61.112666      6623.30
 61.145765      7018.45
 61.178839      6855.35
 61.211889      6605.65
 61.244914      5566.25
 61.277915      5237.95
 61.310891      5337.95
 61.343842      6388.30
 61.376769      6264.00
 61.409672      6508.20
 61.442549      6060.80
 61.475403      5644.55
 61.508232      5303.35
 61.541036      5467.95
 61.573816      5412.30
 61.606571      5083.00
 61.639302      4616.05
 61.672008      4440.90
 61.704689      3385.95
 61.737346      5358.70
 61.769979      5622.30
 61.802587      4943.65
 61.835170      3965.05
 61.867729      4264.65
 61.900263      5180.05
 61.932773      4880.90
 61.965258      4941.40
 61.997719      5143.65
 62.030155      5106.80
 62.062567      3912.00
 62.094954      2106.25
 62.127316      2831.45
 62.159654      3143.25
 62.191968      3855.20
 62.224257      3555.70
 62.256521      3575.20
 62.288761      4251.45
 62.320976      3399.60
 62.353167      3838.45
 62.385333      4566.85
 62.417475      3753.05
 62.449592      3178.80
 62.481685      3704.35
 62.513753      4846.70
 62.545796      4417.80
 62.577815      4163.55
 62.609809      4448.30
 62.641779      4377.60
 62.673725      5167.90
 62.705645      4182.70
 62.737542      3472.85
 62.769413      3830.95
 62.801261      3011.10
 62.833083      3252.50
 62.864881      3886.55
 62.896655      3696.75
 62.928404      3028.65
 62.960128      3088.90
 62.991828      4247.65
 63.023504      3252.50
 63.055154      2414.90
 63.086781      3069.70
 63.118382      3546.15
 63.149960      3774.65
 63.181512      4025.35
 63.213040      3169.15
 63.244544      2678.65
 63.276023      2740.85
 63.307478      3247.50
 63.338908      3435.95
 63.370313      4212.65
 63.401694      3722.65
 63.433050      3186.05
 63.464382      2985.50
 63.495689      3655.25
 63.526972      3373.25
 63.558230      3962.40
 63.589464      3330.80
 63.620673      2592.90
 63.651857      3595.70
 63.683017      3765.50
 63.714153      3339.00
 63.745264      3632.90
 63.776350      4022.45
 63.807412      5413.50
 63.838449      4543.40
 63.869462      3596.85
 63.900450      2856.40
 63.931414      3518.60
 63.962353      3050.45
 63.993268      3500.50
 64.024158      3461.85
 64.055023      4892.75
 64.085864      5101.70
 64.116681      4650.95
 64.147473      4045.20
 64.178240      4011.05
 64.208983      4183.90
 64.239701      4164.45
 64.270395      3805.00
 64.301064      3372.05
 64.331709      3017.45
 64.362329      3429.90
 64.392924      3386.25
 64.423495      3695.85
 64.454042      3745.50
 64.484564      3588.50
 64.515061      3245.40
 64.545534      3483.20
 64.575982      3692.80
 64.606406      3801.30
 64.636805      3164.90
 64.667180      3511.30
 64.697530      4388.80
 64.727856      4678.75
 64.758157      4397.30
 64.788433      3340.45
 64.818685      2903.90
 64.848913      3570.65
 64.879116      4346.15
 64.909294      4082.25
 64.939448      3742.05
 64.969577      3898.95
 64.999682      2845.65
 65.029762      4211.35
 65.059818      4119.50
 65.089849      3288.30
 65.119855      3644.60
 65.149837      4347.00
 65.179795      3999.95
 65.209728      2911.00
 65.239636      2847.40
 65.269520      2814.45
 65.299379      3016.75
 65.329214      3155.90
 65.359024      4243.30
 65.388810      3054.60
 65.418571      2410.10
 65.448308      3742.35
 65.478020      3395.65
 65.507707      3821.40
 65.537370      4317.10
 65.567009      3898.40
 65.596623      3881.25
 65.626212      3776.05
 65.655777      3379.00
 65.685317      4295.95
 65.714833      3546.65
 65.744324      2660.40
 65.773791      3374.65
 65.803233      3575.40
 65.832651      3301.00
 65.862044      2650.85
 65.891412      3482.00
 65.920756      3123.20
 65.950076      3339.45
 65.979370      2780.20
 66.008641      2067.60
 66.037887      2437.70
 66.067108      2481.65
 66.096304      2596.70
 66.125477      2316.75
 66.154624      1555.05
 66.183747      1158.65
 66.212846      1150.50